Waveleght	Intensity	Error
625.43	0.09058	0.00052
625.48	0.08478	0.00039
625.52	0.08768	0.00023
625.56	0.08575	0.00042
625.6	0.08656	0.00041
625.64	0.08676	0.00062
625.68	0.09226	0.0004
625.72	0.08656	0.00034
625.76	0.08391	0.00023
625.8	0.08585	0.00036
625.84	0.08519	0.00044
625.88	0.08325	0.00032
625.92	0.083	0.00047
625.95	0.08676	0.00048
626.0	0.09043	0.00036
626.04	0.08458	0.00052
626.07	0.08921	0.0004
626.12	0.08575	0.00036
626.16	0.08671	0.00044
626.19	0.07999	0.00041
626.24	0.07999	0.00041
626.28	0.08442	0.0004
626.31	0.08768	0.0004
626.36	0.08514	0.00051
626.4	0.0803	0.00038
626.43	0.08473	0.00036
626.48	0.0858	0.00056
626.52	0.08595	0.00033
626.56	0.08855	0.00047
626.6	0.08488	0.00059
626.64	0.08177	0.00042
626.68	0.08295	0.00057
626.72	0.08758	0.00041
626.76	0.08676	0.00048
626.8	0.08676	0.00062
626.84	0.09247	0.00027
626.88	0.08564	0.00033
626.92	0.0885	0.00051
626.95	0.08493	0.0004
627.0	0.08661	0.00052
627.04	0.09068	0.00041
627.07	0.09063	0.00041
627.12	0.09033	0.00036
627.16	0.08458	0.00025
627.19	0.08829	0.00027
627.24	0.08743	0.00044
627.28	0.08936	0.00039
627.31	0.0942	0.00025
627.36	0.09038	0.00046
627.4	0.09053	0.00056
627.43	0.08844	0.00044
627.48	0.08687	0.00053
627.52	0.09058	0.00041
627.56	0.08687	0.00042
627.6	0.08844	0.00038
627.64	0.09221	0.00025
627.68	0.09236	0.00042
627.72	0.08753	0.00034
627.76	0.09033	0.00048
627.8	0.0886	0.00041
627.84	0.09119	0.00061
627.88	0.09333	0.00055
627.92	0.09236	0.00036
627.95	0.09058	0.00052
628.0	0.09074	0.00056
628.04	0.09425	0.00034
628.07	0.0916	0.00034
628.12	0.09639	0.00031
628.16	0.09399	0.00036
628.19	0.09231	0.0005
628.24	0.10015	0.00031
628.28	0.09985	0.00041
628.31	0.09517	0.00047
628.36	0.09496	0.00056
628.4	0.09333	0.0005
628.43	0.09257	0.00033
628.48	0.09924	0.00034
628.52	0.09461	0.0004
628.56	0.09995	0.0005
628.6	0.09995	0.00031
628.64	0.10158	0.00046
628.68	0.09919	0.00046
628.72	0.09608	0.00031
628.76	0.09618	0.00025
628.8	0.09634	0.00051
628.84	0.1029	0.00025
628.88	0.10321	0.00059
628.92	0.1028	0.00034
628.95	0.10178	0.00025
629.0	0.10275	0.00046
629.04	0.09817	0.0004
629.07	0.09715	0.00033
629.12	0.09995	0.00031
629.16	0.1001	0.00027
629.19	0.0971	0.00055
629.24	0.09797	0.00015
629.28	0.09608	0.0002
629.31	0.09359	0.0004
629.36	0.09608	0.00038
629.4	0.09608	0.00044
629.43	0.0941	0.00023
629.48	0.09415	0.00034
629.52	0.09242	0.00051
629.56	0.09705	0.00042
629.6	0.09629	0.00057
629.64	0.09155	0.00046
629.68	0.0941	0.00023
629.72	0.09822	0.00041
629.76	0.09807	0.00053
629.8	0.09328	0.0004
629.84	0.09058	0.00057
629.88	0.0859	0.00038
629.92	0.09165	0.00025
629.95	0.08844	0.00031
630.0	0.0858	0.00056
630.04	0.08595	0.00056
630.07	0.08768	0.00033
630.12	0.08946	0.00038
630.16	0.0859	0.00038
630.19	0.0859	0.00038
630.24	0.08412	0.0006
630.28	0.08575	0.00036
630.31	0.08468	0.00038
630.36	0.08478	0.00032
630.4	0.0859	0.00055
630.43	0.0885	0.0004
630.48	0.08666	0.0004
630.52	0.08295	0.00041
630.56	0.08687	0.00053
630.6	0.08687	0.00036
630.64	0.08666	0.0004
630.68	0.0886	0.00041
630.72	0.08289	0.0004
630.76	0.08009	0.00031
630.8	0.08289	0.00046
630.84	0.08656	0.00025
630.88	0.08972	0.0004
630.92	0.07877	0.00038
630.95	0.07897	0.00052
631.0	0.08514	0.00046
631.04	0.08488	0.0005
631.07	0.08676	0.00058
631.12	0.08478	0.00032
631.16	0.07831	0.00023
631.19	0.08687	0.00053
631.24	0.08651	0.00034
631.28	0.08264	0.00064
631.31	0.08855	0.00034
631.36	0.08575	0.00048
631.4	0.08177	0.00053
631.43	0.09145	0.00036
631.48	0.08289	0.0006
631.52	0.083	0.00041
631.56	0.08106	0.00033
631.6	0.08773	0.00031
631.64	0.08697	0.00033
631.68	0.08381	0.00036
631.72	0.08605	0.00034
631.76	0.09043	0.00036
631.8	0.0915	0.00044
631.84	0.0915	0.00044
631.88	0.08564	0.0004
631.92	0.09527	0.00052
631.95	0.08564	0.00051
632.0	0.0914	0.00039
632.04	0.08941	0.00036
632.07	0.09501	0.00027
632.12	0.09532	0.00033
632.16	0.09348	0.00053
632.19	0.09613	0.00046
632.24	0.09914	0.00044
632.28	0.09425	0.00052
632.31	0.09155	0.0004
632.36	0.10469	0.00036
632.4	0.10448	0.00046
632.43	0.10749	0.00034
632.48	0.10362	0.00039
632.52	0.10178	0.00041
632.56	0.10545	0.00034
632.6	0.10082	0.00041
632.64	0.10759	0.00031
632.68	0.10942	0.00041
632.72	0.10917	0.00048
632.76	0.10377	0.00046
632.8	0.10632	0.00023
632.84	0.10733	0.00046
632.88	0.10932	0.00044
632.92	0.10576	0.00038
632.95	0.10957	0.00023
633.0	0.10927	0.00042
633.04	0.10565	0.00051
633.07	0.1083	0.00031
633.12	0.10937	0.00046
633.16	0.09888	0.0004
633.19	0.10565	0.00056
633.24	0.10652	0.00033
633.28	0.09425	0.00061
633.31	0.0942	0.00052
633.36	0.10352	0.00031
633.4	0.10087	0.00025
633.43	0.0998	0.00047
633.48	0.09685	0.00051
633.52	0.0998	0.00025
633.56	0.09919	0.0006
633.6	0.09888	0.00056
633.64	0.0941	0.00033
633.68	0.09822	0.00041
633.72	0.09155	0.0004
633.76	0.09435	0.0002
633.8	0.09236	0.00053
633.84	0.08687	0.00036
633.88	0.08687	0.00048
633.92	0.08585	0.00048
633.95	0.0942	0.00041
634.0	0.08391	0.00033
634.04	0.08977	0.00031
634.07	0.08575	0.00027
634.12	0.08386	0.00038
634.16	0.08493	0.00023
634.19	0.08488	0.0005
634.24	0.08488	0.0005
634.28	0.08763	0.00076
634.31	0.08289	0.00046
634.36	0.08274	0.00039
634.4	0.08559	0.00025
634.43	0.08381	0.00042
634.48	0.08391	0.0004
634.52	0.08193	0.00025
634.56	0.08855	0.00052
634.6	0.08575	0.00036
634.64	0.08396	0.00034
634.68	0.08381	0.00036
634.72	0.08493	0.00046
634.76	0.08478	0.00046
634.8	0.08493	0.0004
634.84	0.08575	0.00042
634.88	0.08844	0.0005
634.92	0.08315	0.0005
634.95	0.08315	0.00038
635.0	0.08544	0.00033
635.04	0.08865	0.00047
635.07	0.0885	0.00046
635.12	0.0859	0.00031
635.16	0.08773	0.00031
635.19	0.08096	0.00065
635.24	0.08951	0.0004
635.28	0.08773	0.00031
635.31	0.0859	0.00031
635.36	0.08585	0.00042
635.4	0.08284	0.00064
635.43	0.0889	0.00053
635.48	0.07897	0.00052
635.52	0.08396	0.00041
635.56	0.08478	0.00051
635.6	0.08946	0.00031
635.64	0.08926	0.00044
635.68	0.08656	0.00041
635.72	0.09028	0.00031
635.76	0.08829	0.00036
635.8	0.08177	0.00027
635.84	0.083	0.00041
635.88	0.08585	0.00036
635.92	0.08188	0.00033
635.95	0.08208	0.0004
636.0	0.0857	0.0005
636.04	0.0859	0.0005
636.07	0.08575	0.00027
636.12	0.08289	0.0004
636.16	0.08595	0.0004
636.19	0.08498	0.00047
636.24	0.08478	0.00023
636.28	0.08483	0.00048
636.31	0.08396	0.00034
636.36	0.08447	0.00034
636.4	0.08193	0.00041
636.43	0.08101	0.00047
636.48	0.08768	0.0004
636.52	0.08687	0.00058
636.56	0.08661	0.00034
636.6	0.08473	0.00048
636.64	0.08183	0.0005
636.68	0.08289	0.0004
636.72	0.08279	0.00048
636.76	0.08366	0.0002
636.8	0.08101	0.00041
636.84	0.08106	0.00023
636.88	0.08773	0.00031
636.92	0.0857	0.0005
636.95	0.08412	0.00033
637.0	0.08203	0.00057
637.04	0.08188	0.0004
637.07	0.08595	0.00023
637.12	0.0858	0.00032
637.16	0.086	0.00041
637.19	0.08564	0.00046
637.24	0.08839	0.00036
637.28	0.08972	0.00046
637.31	0.08386	0.00038
637.36	0.0861	0.00025
637.4	0.08473	0.00027
637.43	0.08498	0.00057
637.48	0.08788	0.00042
637.52	0.08096	0.00052
637.56	0.08284	0.00038
637.6	0.08564	0.00033
637.64	0.08468	0.0005
637.68	0.08656	0.00034
637.72	0.08656	0.00025
637.76	0.08778	0.00042
637.8	0.09028	0.00038
637.84	0.08758	0.00052
637.88	0.08692	0.00031
637.92	0.08412	0.00033
637.95	0.08208	0.00046
638.0	0.08193	0.00041
638.04	0.08284	0.00038
638.07	0.08081	0.00044
638.12	0.08508	0.00052
638.16	0.0885	0.00051
638.19	0.08493	0.00023
638.24	0.08463	0.00051
638.28	0.08289	0.00033
638.31	0.08289	0.00033
638.36	0.08025	0.00048
638.4	0.08758	0.00034
638.43	0.08483	0.00036
638.48	0.08381	0.00027
638.52	0.08763	0.00047
638.56	0.08091	0.00047
638.6	0.08111	0.00044
638.64	0.0833	0.00036
638.68	0.08371	0.00036
638.72	0.086	0.00041
638.76	0.08391	0.00046
638.8	0.08936	0.00039
638.84	0.08834	0.00046
638.88	0.0885	0.0004
638.92	0.08844	0.00055
638.95	0.08208	0.00033
639.0	0.08488	0.00038
639.04	0.08946	0.00044
639.07	0.08407	0.00034
639.12	0.08498	0.00061
639.16	0.08183	0.00038
639.19	0.08183	0.00044
639.24	0.08483	0.00058
639.28	0.08493	0.00046
639.31	0.0858	0.00039
639.36	0.08758	0.00025
639.4	0.09053	0.00046
639.43	0.08855	0.00034
639.48	0.0888	0.00027
639.52	0.08753	0.00034
639.56	0.0858	0.00023
639.6	0.08768	0.00033
639.64	0.08824	0.00031
639.68	0.08676	0.00042
639.72	0.08758	0.00047
639.76	0.08468	0.00038
639.8	0.08483	0.00027
639.84	0.09063	0.00041
639.88	0.09328	0.00046
639.92	0.08488	0.00031
639.95	0.08956	0.00025
640.0	0.08478	0.00039
640.04	0.08676	0.00042
640.07	0.08697	0.00046
640.12	0.08463	0.00033
640.16	0.08544	0.00056
640.19	0.0858	0.00032
640.24	0.09028	0.00031
640.28	0.08376	0.00046
640.31	0.08483	0.00036
640.36	0.08478	0.00039
640.4	0.08783	0.00023
640.43	0.08844	0.00038
640.48	0.08855	0.00057
640.52	0.08865	0.00047
640.56	0.08671	0.00055
640.6	0.08407	0.00034
640.64	0.08676	0.00036
640.68	0.08671	0.0005
640.72	0.08503	0.00041
640.76	0.08773	0.00055
640.8	0.09048	0.00055
640.84	0.08987	0.00023
640.88	0.08839	0.00027
640.92	0.08636	0.00027
640.95	0.08646	0.00046
641.0	0.08483	0.00042
641.04	0.0885	0.00033
641.07	0.09053	0.00033
641.12	0.09165	0.00047
641.16	0.08407	0.00057
641.19	0.08493	0.0004
641.24	0.08941	0.00048
641.28	0.08956	0.00041
641.31	0.08748	0.00033
641.36	0.09231	0.00038
641.4	0.08687	0.00053
641.43	0.09033	0.00036
641.48	0.08824	0.00038
641.52	0.08794	0.0005
641.56	0.08773	0.0002
641.6	0.086	0.00034
641.64	0.08962	0.00034
641.68	0.08758	0.00034
641.72	0.08946	0.00044
641.76	0.08783	0.00023
641.8	0.08753	0.00047
641.84	0.08778	0.00053
641.88	0.08931	0.00058
641.92	0.0858	0.00023
641.95	0.09323	0.00034
642.0	0.09216	0.00025
642.04	0.08936	0.00076
642.07	0.09053	0.0004
642.12	0.09623	0.00025
642.16	0.09608	0.0005
642.19	0.09425	0.00025
642.24	0.09048	0.00055
642.28	0.0972	0.00034
642.31	0.09343	0.00039
642.36	0.09231	0.00038
642.4	0.09822	0.00034
642.43	0.09827	0.00041
642.48	0.0944	0.00027
642.52	0.09786	0.00046
642.56	0.10189	0.00034
642.6	0.10387	0.00034
642.64	0.10565	0.00051
642.68	0.10377	0.00033
642.72	0.10387	0.00034
642.76	0.10749	0.00057
642.8	0.11421	0.00071
642.84	0.11894	0.00036
642.88	0.12149	0.00048
642.92	0.12154	0.0005
642.95	0.13004	0.00036
643.0	0.13289	0.00052
643.04	0.13284	0.00065
643.07	0.14328	0.00036
643.12	0.15071	0.00057
643.16	0.15652	0.00036
643.19	0.15275	0.00025
643.24	0.1697	0.00038
643.28	0.16716	0.0002
643.31	0.1668	0.00042
643.36	0.17897	0.00023
643.4	0.18671	0.00044
643.43	0.18401	0.00036
643.48	0.18554	0.00027
643.52	0.19409	0.0004
643.56	0.2	0.00033
643.6	0.19175	0.00027
643.64	0.19149	0.00057
643.68	0.19261	0.00059
643.72	0.20091	0.00042
643.76	0.19989	0.00048
643.8	0.19526	0.00051
643.84	0.19058	0.0005
643.88	0.18773	0.0002
643.92	0.18762	0.00023
643.95	0.19429	0.00048
644.0	0.18381	0.00052
644.04	0.17709	0.00033
644.07	0.17907	0.00031
644.12	0.1669	0.00051
644.16	0.16227	0.00031
644.19	0.16222	0.00042
644.24	0.15937	0.00034
644.28	0.15265	0.00051
644.31	0.14165	0.00033
644.36	0.14613	0.00052
644.4	0.13503	0.00051
644.43	0.13116	0.00027
644.48	0.12256	0.00038
644.52	0.1224	0.00027
644.56	0.11492	0.00055
644.6	0.114	0.00052
644.64	0.11029	0.00048
644.68	0.11034	0.00031
644.72	0.09965	0.00044
644.76	0.10372	0.0002
644.8	0.10372	0.00038
644.84	0.10005	0.00039
644.88	0.0942	0.00047
644.92	0.10015	0.00031
644.95	0.09155	0.00046
645.0	0.09221	0.00034
645.04	0.097	0.00032
645.07	0.0969	0.00038
645.12	0.08916	0.00057
645.16	0.09812	0.00038
645.19	0.08977	0.0005
645.24	0.08198	0.00025
645.28	0.09236	0.00048
645.31	0.08946	0.00044
645.36	0.09038	0.00039
645.4	0.09058	0.00052
645.43	0.08967	0.00025
645.48	0.0857	0.00038
645.52	0.08401	0.00041
645.56	0.08483	0.00027
645.6	0.08855	0.00041
645.64	0.0914	0.00023
645.68	0.0915	0.00044
645.72	0.08814	0.00041
645.76	0.08865	0.00052
645.8	0.08941	0.00042
645.84	0.08687	0.00053
645.88	0.09221	0.00034
645.92	0.08941	0.00048
645.95	0.08682	0.00039
646.0	0.08651	0.00041
646.04	0.08941	0.00042
646.07	0.08936	0.00051
646.12	0.08651	0.00034
646.16	0.08931	0.00048
646.19	0.0914	0.00039
646.24	0.08788	0.00042
646.28	0.08763	0.00025
646.31	0.08951	0.00046
646.36	0.08972	0.00033
646.4	0.09313	0.00034
646.43	0.08717	0.00051
646.48	0.08936	0.00032
646.52	0.08946	0.00038
646.56	0.08941	0.00048
646.6	0.08956	0.00034
646.64	0.09303	0.0005
646.68	0.09201	0.00031
646.72	0.09155	0.00033
646.76	0.08951	0.0004
646.8	0.08671	0.00055
646.84	0.09348	0.00027
646.88	0.09333	0.00055
646.92	0.09348	0.00048
646.95	0.09247	0.00066
647.0	0.09048	0.00031
647.04	0.09323	0.00041
647.07	0.09318	0.00034
647.12	0.09603	0.00027
647.16	0.09629	0.00025
647.19	0.09588	0.00044
647.24	0.09888	0.0006
647.28	0.1	0.00042
647.31	0.09532	0.0004
647.36	0.10275	0.00023
647.4	0.10555	0.00038
647.43	0.1056	0.00042
647.48	0.10545	0.00041
647.52	0.11039	0.00056
647.56	0.10912	0.00038
647.6	0.11609	0.00034
647.64	0.11777	0.00031
647.68	0.12632	0.00047
647.72	0.12088	0.00027
647.76	0.12072	0.00034
647.8	0.12653	0.00046
647.84	0.1332	0.00027
647.88	0.12531	0.00057
647.92	0.13381	0.00046
647.95	0.13386	0.00047
648.0	0.13228	0.00046
648.04	0.13203	0.00044
648.07	0.12256	0.00044
648.12	0.12347	0.00039
648.16	0.13004	0.00053
648.19	0.13376	0.00038
648.24	0.12245	0.00023
648.28	0.12821	0.00046
648.31	0.12856	0.00032
648.36	0.12337	0.00038
648.4	0.12368	0.00047
648.43	0.11772	0.00046
648.48	0.11507	0.00025
648.52	0.11416	0.0004
648.56	0.11594	0.00064
648.6	0.10647	0.00047
648.64	0.10626	0.0002
648.68	0.10453	0.00031
648.72	0.10087	0.00034
648.76	0.09786	0.00046
648.8	0.10295	0.00033
648.84	0.0972	0.00073
648.88	0.0943	0.00023
648.92	0.09435	0.00031
648.95	0.09445	0.00023
649.0	0.09018	0.00034
649.04	0.09715	0.00033
649.07	0.09613	0.00033
649.12	0.09206	0.0004
649.16	0.09033	0.00042
649.19	0.08651	0.00061
649.24	0.08661	0.00047
649.28	0.08692	0.00031
649.31	0.08977	0.00044
649.36	0.09318	0.00057
649.4	0.09226	0.00056
649.43	0.08748	0.00033
649.48	0.0916	0.00041
649.52	0.09165	0.00034
649.56	0.09231	0.00044
649.6	0.08844	0.0005
649.64	0.08951	0.00046
649.68	0.0915	0.00064
649.72	0.08844	0.00038
649.76	0.08967	0.00041
649.8	0.08962	0.00047
649.84	0.08962	0.00047
649.88	0.08682	0.00039
649.92	0.08967	0.00047
649.95	0.08855	0.00025
650.0	0.08885	0.00051
650.04	0.08768	0.00033
650.07	0.08498	0.00047
650.12	0.08473	0.00048
650.16	0.08676	0.00027
650.19	0.09313	0.00047
650.24	0.08682	0.00051
650.28	0.08396	0.00034
650.31	0.08763	0.00052
650.36	0.08483	0.00042
650.4	0.08493	0.00056
650.43	0.09033	0.00042
650.48	0.08666	0.00046
650.52	0.08386	0.00031
650.56	0.08676	0.00048
650.6	0.08676	0.00042
650.64	0.08585	0.00036
650.68	0.0858	0.00039
650.72	0.08967	0.00034
650.76	0.08778	0.00042
650.8	0.08926	0.00038
650.84	0.09135	0.00042
650.88	0.08941	0.00062
650.92	0.08788	0.00036
650.95	0.08666	0.0004
651.0	0.08687	0.00048
651.04	0.08193	0.00034
651.07	0.08004	0.00033
651.12	0.08386	0.00031
651.16	0.08193	0.00069
651.19	0.0859	0.00031
651.24	0.09216	0.00041
651.28	0.09221	0.00034
651.31	0.08478	0.00023
651.36	0.08167	0.00048
651.4	0.08473	0.00027
651.43	0.08478	0.00056
651.48	0.0885	0.0004
651.52	0.08417	0.00031
651.56	0.09038	0.00039
651.6	0.09058	0.00061
651.64	0.08096	0.00041
651.68	0.08386	0.00038
651.72	0.08381	0.00036
651.76	0.08585	0.00015
651.8	0.086	0.00041
651.84	0.08773	0.00044
651.88	0.08768	0.0004
651.92	0.08768	0.00033
651.95	0.08391	0.00046
652.0	0.083	0.00025
652.04	0.08946	0.00038
652.07	0.08967	0.00034
652.12	0.09033	0.00048
652.16	0.09038	0.00032
652.19	0.08554	0.00047
652.24	0.0886	0.00034
652.28	0.0859	0.00038
652.31	0.08188	0.00051
652.36	0.086	0.00025
652.4	0.08478	0.00046
652.43	0.08962	0.00041
652.48	0.08972	0.00033
652.52	0.08682	0.00032
652.56	0.08493	0.00046
652.6	0.08671	0.0005
652.64	0.08488	0.00055
652.68	0.09048	0.00031
652.72	0.08503	0.00047
652.76	0.08447	0.00047
652.8	0.08575	0.00027
652.84	0.08687	0.00048
652.88	0.08962	0.00047
652.92	0.0887	0.0004
652.95	0.0885	0.00033
653.0	0.08788	0.00042
653.04	0.08773	0.00055
653.07	0.08666	0.00046
653.12	0.08671	0.00038
653.16	0.08956	0.00041
653.19	0.08478	0.00046
653.24	0.08951	0.0004
653.28	0.08651	0.00052
653.31	0.08386	0.00038
653.36	0.08376	0.00039
653.4	0.09063	0.00047
653.43	0.08671	0.0005
653.48	0.08865	0.00034
653.52	0.08773	0.0002
653.56	0.0831	0.00051
653.6	0.08844	0.0005
653.64	0.08875	0.00059
653.68	0.08962	0.00025
653.72	0.0858	0.00023
653.76	0.08463	0.00046
653.8	0.07994	0.00041
653.84	0.08493	0.00046
653.88	0.08386	0.00038
653.92	0.08738	0.00036
653.95	0.08788	0.00015
654.0	0.08951	0.00046
654.04	0.0941	0.00033
654.07	0.09236	0.00027
654.12	0.0857	0.00038
654.16	0.08483	0.00042
654.19	0.083	0.00041
654.24	0.08315	0.00044
654.28	0.08671	0.00044
654.31	0.08834	0.00051
654.36	0.09135	0.00042
654.4	0.08692	0.00044
654.43	0.08086	0.00033
654.48	0.08676	0.00036
654.52	0.08692	0.00038
654.56	0.08401	0.00034
654.6	0.08595	0.00051
654.64	0.08763	0.00034
654.68	0.08804	0.00047
654.72	0.08101	0.00047
654.76	0.0858	0.00023
654.8	0.08473	0.00042
654.84	0.08483	0.00048
654.88	0.08656	0.00034
654.92	0.0832	0.00027
654.95	0.08778	0.00053
655.0	0.08962	0.00047
655.04	0.08463	0.00033
655.07	0.08946	0.00038
655.12	0.08941	0.00027
655.16	0.09038	0.00039
655.19	0.08763	0.00034
655.24	0.07974	0.00015
655.28	0.08682	0.00046
655.31	0.09018	0.00041
655.36	0.08183	0.00038
655.4	0.08213	0.00038
655.43	0.08183	0.00038
655.48	0.08177	0.00036
655.52	0.08676	0.00062
655.56	0.08768	0.00033
655.6	0.09135	0.00036
655.64	0.08595	0.00033
655.68	0.086	0.00041
655.72	0.08595	0.00033
655.76	0.08106	0.00046
655.8	0.0859	0.00044
655.84	0.08656	0.00034
655.88	0.08839	0.00036
655.92	0.0858	0.00046
655.95	0.0857	0.00038
656.0	0.08575	0.00036
656.04	0.08396	0.00041
656.07	0.08992	0.00036
656.12	0.08463	0.00033
656.16	0.08794	0.00031
656.19	0.08417	0.0005
656.24	0.08514	0.0006
656.28	0.08855	0.00047
656.31	0.0886	0.00052
656.36	0.08004	0.00046
656.4	0.07999	0.00041
656.43	0.08855	0.00034
656.48	0.08666	0.0004
656.52	0.08768	0.00023
656.56	0.08564	0.00033
656.6	0.0858	0.00032
656.64	0.0859	0.00031
656.68	0.08687	0.00048
656.72	0.08972	0.0004
656.76	0.08463	0.00056
656.8	0.08967	0.00047
656.84	0.08483	0.00027
656.88	0.08478	0.00046
656.92	0.08473	0.00058
656.95	0.08844	0.00031
657.0	0.08554	0.00047
657.04	0.08941	0.00042
657.07	0.0916	0.00034
657.12	0.08193	0.00041
657.16	0.0886	0.00041
657.19	0.08844	0.00038
657.24	0.0858	0.00039
657.28	0.08401	0.00034
657.31	0.08967	0.00041
657.36	0.0886	0.00025
657.4	0.0861	0.00025
657.43	0.08463	0.00046
657.48	0.08468	0.00038
657.52	0.09063	0.00041
657.56	0.08936	0.00051
657.6	0.08203	0.00041
657.64	0.08407	0.00034
657.68	0.08692	0.00044
657.72	0.08401	0.00041
657.76	0.08422	0.00042
657.8	0.08473	0.00036
657.84	0.08605	0.00034
657.88	0.08967	0.00034
657.92	0.08788	0.00015
657.95	0.08941	0.00058
658.0	0.08763	0.00041
658.04	0.08956	0.00061
658.07	0.08936	0.00046
658.12	0.08208	0.00033
658.16	0.08564	0.00051
658.19	0.08738	0.00042
658.24	0.08855	0.00034
658.28	0.08585	0.00036
658.31	0.083	0.00052
658.36	0.08295	0.00041
658.4	0.09043	0.00042
658.43	0.08401	0.00052
658.48	0.08274	0.0006
658.52	0.08743	0.00038
658.56	0.08371	0.00042
658.6	0.08473	0.00027
658.64	0.08666	0.00033
658.68	0.08676	0.00027
658.72	0.08753	0.00041
658.76	0.08967	0.00041
658.8	0.08951	0.00033
658.84	0.09038	0.00046
658.88	0.08682	0.0006
658.92	0.08768	0.00023
658.95	0.08778	0.00048
659.0	0.08875	0.00031
659.04	0.09048	0.00031
659.07	0.08778	0.00036
659.12	0.09247	0.00042
659.16	0.09425	0.00034
659.19	0.08936	0.00046
659.24	0.08951	0.0006
659.28	0.08972	0.0004
659.31	0.09822	0.00034
659.36	0.08839	0.00042
659.4	0.0916	0.00052
659.43	0.09817	0.00023
659.48	0.09517	0.00052
659.52	0.09995	0.0005
659.56	0.0997	0.00056
659.6	0.10066	0.00044
659.64	0.09618	0.00047
659.68	0.09995	0.00055
659.72	0.10652	0.0004
659.76	0.0998	0.00025
659.8	0.10942	0.00069
659.84	0.10922	0.00046
659.88	0.10952	0.00052
659.92	0.11115	0.00059
659.95	0.10738	0.00047
660.0	0.11696	0.00031
660.04	0.11411	0.00052
660.07	0.11696	0.00031
660.12	0.11696	0.00038
660.16	0.11293	0.0004
660.19	0.11105	0.00034
660.24	0.11029	0.00036
660.28	0.11298	0.00034
660.31	0.12083	0.00064
660.36	0.11405	0.00041
660.4	0.114	0.00061
660.43	0.11421	0.00031
660.48	0.11227	0.00023
660.52	0.11599	0.00033
660.56	0.10586	0.00034
660.6	0.1083	0.0002
660.64	0.10718	0.00039
660.68	0.10173	0.00051
660.72	0.10209	0.00032
660.76	0.11024	0.00032
660.8	0.10652	0.0004
660.84	0.10194	0.00051
660.88	0.10005	0.00032
660.92	0.0942	0.00061
660.95	0.09715	0.00056
661.0	0.09629	0.00041
661.04	0.09608	0.00044
661.07	0.08951	0.00046
661.12	0.09155	0.0004
661.16	0.09415	0.00034
661.19	0.09211	0.00047
661.24	0.09018	0.00047
661.28	0.08656	0.00041
661.31	0.08687	0.00048
661.36	0.08498	0.00047
661.4	0.0887	0.00033
661.43	0.08412	0.00023
661.48	0.09124	0.00033
661.52	0.09242	0.00032
661.56	0.09323	0.00041
661.6	0.09333	0.00055
661.64	0.08391	0.00051
661.68	0.09236	0.00036
661.72	0.08768	0.00023
661.76	0.09328	0.00068
661.8	0.0915	0.00044
661.84	0.08682	0.00032
661.88	0.08977	0.00038
661.92	0.08972	0.00046
661.95	0.09338	0.00066
662.0	0.0942	0.00052
662.04	0.0942	0.00047
662.07	0.09058	0.00041
662.12	0.09318	0.00047
662.16	0.09104	0.00051
662.19	0.09155	0.00033
662.24	0.09425	0.00025
662.28	0.09058	0.00047
662.31	0.09211	0.00034
662.36	0.09053	0.00051
662.4	0.08396	0.00025
662.43	0.09175	0.0004
662.48	0.0914	0.00039
662.52	0.08773	0.00031
662.56	0.09898	0.00053
662.6	0.09043	0.00058
662.64	0.09532	0.00046
662.68	0.09608	0.00044
662.72	0.09685	0.00051
662.76	0.09522	0.00034
662.8	0.09522	0.00052
662.84	0.10448	0.00033
662.88	0.09883	0.00057
662.92	0.09511	0.00046
662.95	0.09634	0.0004
663.0	0.09741	0.00038
663.04	0.0943	0.00023
663.07	0.09445	0.00039
663.12	0.10112	0.00042
663.16	0.10199	0.00064
663.19	0.10906	0.00033
663.24	0.10377	0.00023
663.28	0.10458	0.00027
663.31	0.111	0.00041
663.36	0.10458	0.00048
663.4	0.10464	0.00051
663.43	0.1056	0.00042
663.48	0.10937	0.00046
663.52	0.10922	0.00056
663.56	0.11232	0.00048
663.6	0.10866	0.00036
663.64	0.11024	0.00039
663.68	0.11008	0.0006
663.72	0.11879	0.00038
663.76	0.11874	0.00046
663.8	0.11034	0.00044
663.84	0.11003	0.00034
663.88	0.11874	0.0004
663.92	0.11482	0.00046
663.95	0.11512	0.00057
664.0	0.11711	0.00057
664.04	0.12179	0.00046
664.07	0.12648	0.00036
664.12	0.11472	0.00031
664.16	0.11691	0.00042
664.19	0.11324	0.00048
664.24	0.11869	0.00041
664.28	0.11864	0.00025
664.31	0.114	0.00034
664.36	0.11105	0.00025
664.4	0.11018	0.00042
664.43	0.1139	0.0005
664.48	0.11787	0.00051
664.52	0.1084	0.00041
664.56	0.10845	0.00034
664.6	0.10555	0.00038
664.64	0.10728	0.00038
664.68	0.1084	0.00025
664.72	0.10183	0.00052
664.76	0.10199	0.00044
664.8	0.09914	0.00038
664.84	0.09898	0.00058
664.88	0.10183	0.00047
664.92	0.10443	0.00041
664.95	0.10173	0.0004
665.0	0.10015	0.0002
665.04	0.10021	0.0004
665.07	0.09242	0.00039
665.12	0.10026	0.00034
665.16	0.09995	0.00038
665.19	0.09338	0.00053
665.24	0.10382	0.00047
665.28	0.09802	0.00046
665.31	0.09909	0.00048
665.36	0.09797	0.00036
665.4	0.09629	0.00041
665.43	0.09613	0.00023
665.48	0.09231	0.00031
665.52	0.08926	0.00038
665.56	0.09542	0.00042
665.6	0.09511	0.00051
665.64	0.09165	0.00025
665.68	0.08951	0.0004
665.72	0.08783	0.00039
665.76	0.08768	0.00033
665.8	0.08401	0.00034
665.84	0.08819	0.00033
665.88	0.08575	0.00036
665.92	0.0914	0.0006
665.95	0.09231	0.00031
666.0	0.09135	0.00048
666.04	0.0917	0.00041
666.07	0.09216	0.00025
666.12	0.08967	0.00052
666.16	0.09527	0.00047
666.19	0.09221	0.00057
666.24	0.08972	0.00033
666.28	0.08921	0.00033
666.31	0.08962	0.00034
666.36	0.0857	0.00038
666.4	0.08478	0.00046
666.43	0.08865	0.00041
666.48	0.09023	0.00033
666.52	0.08498	0.00041
666.56	0.0942	0.00034
666.6	0.09303	0.00059
666.64	0.09364	0.00057
666.68	0.0859	0.00038
666.72	0.08554	0.00041
666.76	0.08753	0.00034
666.8	0.09216	0.00034
666.84	0.08911	0.00061
666.88	0.0858	0.00039
666.92	0.0857	0.00038
666.95	0.08676	0.00042
667.0	0.08839	0.00042
667.04	0.08956	0.00047
667.07	0.09155	0.00033
667.12	0.08982	0.00042
667.16	0.08778	0.00036
667.19	0.08773	0.00038
667.24	0.08783	0.00032
667.28	0.08875	0.00031
667.31	0.0886	0.00041
667.36	0.08656	0.00034
667.4	0.0941	0.00033
667.43	0.08839	0.00048
667.48	0.09145	0.00036
667.52	0.09119	0.00047
667.56	0.0859	0.00038
667.6	0.09343	0.00046
667.64	0.08819	0.0004
667.68	0.08977	0.0002
667.72	0.08595	0.00033
667.76	0.08824	0.00031
667.8	0.08844	0.00055
667.84	0.08855	0.00057
667.88	0.08671	0.00075
667.92	0.08946	0.00055
667.95	0.08844	0.00038
668.0	0.0857	0.0005
668.04	0.08763	0.00034
668.07	0.08656	0.00047
668.12	0.08682	0.00039
668.16	0.08671	0.00044
668.19	0.08676	0.00048
668.24	0.0888	0.00036
668.28	0.0885	0.00051
668.31	0.08783	0.00046
668.36	0.08931	0.00042
668.4	0.08962	0.00047
668.43	0.09038	0.00039
668.48	0.08753	0.00047
668.52	0.08921	0.00046
668.56	0.08447	0.00034
668.6	0.0914	0.00032
668.64	0.08473	0.00048
668.68	0.08478	0.00046
668.72	0.08666	0.00033
668.76	0.09348	0.00053
668.8	0.09262	0.00041
668.84	0.08819	0.0004
668.88	0.08468	0.00038
668.92	0.08758	0.00025
668.95	0.08478	0.00051
669.0	0.08463	0.00033
669.04	0.08936	0.0006
669.07	0.08844	0.00038
669.12	0.09135	0.00042
669.16	0.0858	0.00046
669.19	0.08956	0.00041
669.24	0.08585	0.00027
669.28	0.0859	0.0002
669.31	0.09333	0.00044
669.36	0.08839	0.00027
669.4	0.0857	0.00044
669.43	0.0858	0.00032
669.48	0.08768	0.00046
669.52	0.08763	0.00034
669.56	0.08748	0.0004
669.6	0.0859	0.00044
669.64	0.08783	0.00039
669.68	0.08493	0.00033
669.72	0.08778	0.00042
669.76	0.0885	0.00046
669.8	0.08865	0.00041
669.84	0.0859	0.00038
669.88	0.0859	0.00038
669.92	0.08401	0.00025
669.95	0.08962	0.00034
670.0	0.08875	0.00044
670.04	0.08559	0.00034
670.07	0.08488	0.00059
670.12	0.09252	0.0005
670.16	0.09221	0.00025
670.19	0.08554	0.00041
670.24	0.08692	0.00038
670.28	0.09038	0.00046
670.31	0.08778	0.00042
670.36	0.09058	0.00025
670.4	0.08962	0.00041
670.43	0.09038	0.00039
670.48	0.09023	0.00046
670.52	0.09216	0.00034
670.56	0.08844	0.0005
670.6	0.0914	0.0006
670.64	0.09043	0.00036
670.68	0.09211	0.00025
670.72	0.09685	0.00051
670.76	0.09695	0.00048
670.8	0.09435	0.00038
670.84	0.09527	0.00057
670.88	0.09236	0.00036
670.92	0.08977	0.00031
670.95	0.09613	0.0004
671.0	0.09598	0.0006
671.04	0.09639	0.00031
671.07	0.09348	0.00053
671.12	0.09695	0.00042
671.16	0.09517	0.00041
671.19	0.09914	0.00044
671.24	0.09527	0.00025
671.28	0.09435	0.00031
671.31	0.09517	0.00052
671.36	0.09547	0.00039
671.4	0.09338	0.00027
671.43	0.0943	0.00023
671.48	0.09812	0.00031
671.52	0.09786	0.0004
671.56	0.09348	0.00042
671.6	0.09588	0.00038
671.64	0.09588	0.00044
671.68	0.09959	0.00027
671.72	0.09893	0.00044
671.76	0.10189	0.00041
671.8	0.09822	0.00041
671.84	0.1001	0.00027
671.88	0.10077	0.00034
671.92	0.10092	0.00033
671.95	0.09155	0.00046
672.0	0.09985	0.00025
672.04	0.10275	0.00046
672.07	0.09613	0.00065
672.12	0.09608	0.0002
672.16	0.09506	0.00038
672.19	0.0914	0.00056
672.24	0.09135	0.00015
672.28	0.09333	0.00038
672.31	0.09313	0.00034
672.36	0.09145	0.00053
672.4	0.09715	0.0004
672.43	0.09629	0.00025
672.48	0.0945	0.00042
672.52	0.09405	0.0005
672.56	0.0914	0.00039
672.6	0.09522	0.00041
672.64	0.08951	0.0004
672.68	0.09333	0.00031
672.72	0.09211	0.00041
672.76	0.08651	0.00034
672.8	0.08967	0.00057
672.84	0.08962	0.00041
672.88	0.09236	0.00036
672.92	0.08412	0.00046
672.95	0.09496	0.00046
673.0	0.09165	0.00034
673.04	0.08676	0.00042
673.07	0.09226	0.00023
673.12	0.09231	0.00038
673.16	0.0887	0.00051
673.19	0.08682	0.00039
673.24	0.08661	0.00047
673.28	0.08972	0.00033
673.31	0.08697	0.0004
673.36	0.08855	0.00057
673.4	0.08865	0.00034
673.43	0.08977	0.0005
673.48	0.08931	0.00058
673.52	0.0859	0.00031
673.56	0.08778	0.00036
673.6	0.08183	0.00031
673.64	0.09048	0.00031
673.68	0.0913	0.0005
673.72	0.09124	0.00033
673.76	0.09216	0.00034
673.8	0.08442	0.00033
673.84	0.08855	0.00041
673.88	0.08687	0.00053
673.92	0.0885	0.00023
673.95	0.0887	0.00051
674.0	0.08839	0.00036
674.04	0.09165	0.00025
674.07	0.09058	0.00047
674.12	0.08544	0.00033
674.16	0.08661	0.00034
674.19	0.08768	0.00033
674.24	0.0885	0.00056
674.28	0.08829	0.00042
674.31	0.08962	0.00034
674.36	0.0916	0.00052
674.4	0.08666	0.00046
674.43	0.0914	0.00032
674.48	0.08396	0.00034
674.52	0.0915	0.00031
674.56	0.086	0.00034
674.6	0.0859	0.00031
674.64	0.08682	0.00046
674.68	0.09033	0.00042
674.72	0.08956	0.00061
674.76	0.08676	0.00048
674.8	0.08488	0.00038
674.84	0.08844	0.0005
674.88	0.08834	0.00039
674.92	0.08758	0.00025
674.95	0.08651	0.00052
675.0	0.08768	0.0004
675.04	0.09053	0.00051
675.07	0.08325	0.00068
675.12	0.09058	0.00052
675.16	0.09074	0.00051
675.19	0.09043	0.00042
675.24	0.08946	0.0005
675.28	0.08692	0.00044
675.31	0.09226	0.00033
675.36	0.08463	0.0004
675.4	0.08682	0.00039
675.43	0.09053	0.00065
675.48	0.09023	0.0004
675.52	0.08483	0.00053
675.56	0.08748	0.00033
675.6	0.08473	0.00042
675.64	0.0859	0.0005
675.68	0.08855	0.00034
675.72	0.08661	0.00041
675.76	0.08671	0.00031
675.8	0.08193	0.00025
675.84	0.08376	0.00039
675.88	0.08661	0.00041
675.92	0.08177	0.00036
675.95	0.08855	0.00041
676.0	0.08422	0.00036
676.04	0.08483	0.00042
676.07	0.08483	0.00036
676.12	0.08488	0.00038
676.16	0.08468	0.00031
676.19	0.08284	0.00055
676.24	0.0859	0.00031
676.28	0.0941	0.00033
676.31	0.09333	0.00031
676.36	0.09318	0.00041
676.4	0.08279	0.00048
676.43	0.08676	0.00036
676.48	0.08956	0.00034
676.52	0.08671	0.00038
676.56	0.08386	0.00038
676.6	0.0857	0.0005
676.64	0.0858	0.00056
676.68	0.0857	0.00044
676.72	0.08946	0.00044
676.76	0.08839	0.00042
676.8	0.08676	0.00036
676.84	0.08284	0.00064
676.88	0.09517	0.00041
676.92	0.08768	0.00033
676.95	0.08758	0.00041
677.0	0.08844	0.00031
677.04	0.09165	0.00034
677.07	0.08865	0.00034
677.12	0.08671	0.00064
677.16	0.08646	0.00023
677.19	0.0885	0.00033
677.24	0.08844	0.00038
677.28	0.09043	0.00053
677.31	0.08407	0.00041
677.36	0.09323	0.00047
677.4	0.09328	0.0004
677.43	0.08834	0.00039
677.48	0.086	0.00041
677.52	0.08855	0.00057
677.56	0.0886	0.00025
677.6	0.08676	0.00027
677.64	0.08865	0.00047
677.68	0.08473	0.00027
677.72	0.0859	0.0005
677.76	0.08478	0.00051
677.8	0.08946	0.00059
677.84	0.08941	0.00058
677.88	0.0887	0.00056
677.92	0.08575	0.00042
677.95	0.08564	0.00051
678.0	0.08641	0.00031
678.04	0.09338	0.00053
678.07	0.0857	0.00038
678.12	0.0859	0.00031
678.16	0.08946	0.00055
678.19	0.09231	0.00044
678.24	0.08289	0.00046
678.28	0.08967	0.00025
678.31	0.08661	0.00025
678.36	0.08671	0.00031
678.4	0.08819	0.00033
678.43	0.08844	0.00031
678.48	0.09068	0.00061
678.52	0.08839	0.00036
678.56	0.08493	0.00046
678.6	0.08503	0.00047
678.64	0.09048	0.00038
678.68	0.08702	0.00052
678.72	0.08692	0.00038
678.76	0.09023	0.00068
678.8	0.08844	0.00044
678.84	0.08468	0.00038
678.88	0.08463	0.00033
678.92	0.08763	0.00025
678.95	0.08483	0.00036
679.0	0.08468	0.00044
679.04	0.08366	0.00038
679.07	0.08687	0.00048
679.12	0.08783	0.00032
679.16	0.09231	0.00038
679.19	0.0917	0.00047
679.24	0.08564	0.00056
679.28	0.08473	0.00053
679.31	0.08493	0.0006
679.36	0.08671	0.00044
679.4	0.0858	0.00051
679.43	0.08463	0.00033
679.48	0.08824	0.00038
679.52	0.0859	0.00038
679.56	0.08666	0.00046
679.6	0.08682	0.00039
679.64	0.08844	0.00044
679.68	0.08208	0.00033
679.72	0.08091	0.00041
679.76	0.09231	0.0005
679.8	0.08788	0.00036
679.84	0.08498	0.00061
679.88	0.09221	0.00047
679.92	0.09231	0.0005
679.95	0.08671	0.00038
680.0	0.08962	0.00047
680.04	0.08585	0.00042
680.07	0.08177	0.00036
680.12	0.0916	0.00034
680.16	0.08829	0.00042
680.19	0.0887	0.0004
680.24	0.08977	0.00031
680.28	0.09343	0.00032
680.31	0.08208	0.0004
680.36	0.09033	0.00058
680.4	0.08468	0.00031
680.43	0.09023	0.0004
680.48	0.09033	0.00048
680.52	0.086	0.00047
680.56	0.08478	0.00023
680.6	0.09053	0.0004
680.64	0.08386	0.0005
680.68	0.08855	0.00034
680.72	0.0916	0.00047
680.76	0.08289	0.00046
680.8	0.08289	0.00033
680.84	0.08956	0.00041
680.88	0.08396	0.00047
680.92	0.09043	0.00036
680.95	0.08401	0.00041
681.0	0.08666	0.00033
681.04	0.08585	0.00027
681.07	0.08549	0.00041
681.12	0.08595	0.00046
681.16	0.08962	0.00025
681.19	0.09236	0.00027
681.24	0.083	0.00041
681.28	0.09043	0.00027
681.31	0.08575	0.00048
681.36	0.0857	0.00044
681.4	0.0885	0.00051
681.43	0.08468	0.00038
681.48	0.08844	0.00038
681.52	0.08768	0.00033
681.56	0.08956	0.00065
681.6	0.08885	0.00039
681.64	0.08855	0.00047
681.68	0.08875	0.00031
681.72	0.08391	0.00046
681.76	0.08091	0.00052
681.8	0.08615	0.00033
681.84	0.09348	0.00048
681.88	0.08483	0.00048
681.92	0.0915	0.00031
681.95	0.0915	0.00038
682.0	0.08483	0.00036
682.04	0.08646	0.0004
682.07	0.08972	0.00033
682.12	0.08559	0.00047
682.16	0.08748	0.00033
682.19	0.08962	0.00047
682.24	0.08865	0.001
682.28	0.08783	0.00032
682.31	0.08967	0.00052
682.36	0.08671	0.00031
682.4	0.08386	0.00031
682.43	0.08768	0.00033
682.48	0.08468	0.0005
682.52	0.08977	0.00031
682.56	0.08956	0.00041
682.6	0.09236	0.00036
682.64	0.08391	0.00033
682.68	0.08284	0.00059
682.72	0.086	0.00047
682.76	0.08458	0.00041
682.8	0.08773	0.00031
682.84	0.08783	0.00023
682.88	0.08605	0.00034
682.92	0.0885	0.00046
682.95	0.08763	0.00034
683.0	0.07984	0.0004
683.04	0.08758	0.00041
683.07	0.08794	0.00044
683.12	0.08855	0.00034
683.16	0.08865	0.00025
683.19	0.0914	0.00032
683.24	0.08651	0.00061
683.28	0.08768	0.00023
683.31	0.08463	0.0004
683.36	0.08218	0.00048
683.4	0.09155	0.00033
683.43	0.09135	0.00036
683.48	0.09415	0.00034
683.52	0.0915	0.00031
683.56	0.0857	0.0005
683.6	0.08274	0.00051
683.64	0.08575	0.00036
683.68	0.08758	0.00034
683.72	0.08768	0.00046
683.76	0.08305	0.00034
683.8	0.0888	0.00048
683.84	0.08605	0.00025
683.88	0.08855	0.00041
683.92	0.08758	0.00025
683.95	0.086	0.00034
684.0	0.08585	0.00036
684.04	0.0858	0.00032
684.07	0.09231	0.00044
684.12	0.08778	0.00036
684.16	0.08788	0.00027
684.19	0.08407	0.00047
684.24	0.08401	0.00041
684.28	0.08956	0.00041
684.31	0.08962	0.00034
684.36	0.08875	0.00038
684.4	0.08783	0.00051
684.43	0.08972	0.00023
684.48	0.08203	0.00041
684.52	0.08661	0.00034
684.56	0.08585	0.00027
684.6	0.0858	0.00039
684.64	0.08956	0.00034
684.68	0.08834	0.00046
684.72	0.08585	0.00036
684.76	0.08824	0.00031
684.8	0.09058	0.00041
684.84	0.09221	0.00025
684.88	0.08463	0.00033
684.92	0.08478	0.00046
684.95	0.0858	0.00023
685.0	0.09048	0.00064
685.04	0.08666	0.0004
685.07	0.0915	0.00038
685.12	0.08839	0.00036
685.16	0.08666	0.00046
685.19	0.08687	0.00036
685.24	0.09135	0.00036
685.28	0.09028	0.00031
685.31	0.08575	0.00042
685.36	0.08692	0.00038
685.4	0.083	0.00034
685.43	0.08687	0.00048
685.48	0.08773	0.00038
685.52	0.08763	0.00041
685.56	0.09135	0.00058
685.6	0.08666	0.00033
685.64	0.08962	0.00034
685.68	0.08508	0.00052
685.72	0.09053	0.0004
685.76	0.08687	0.00053
685.8	0.08646	0.00051
685.84	0.08763	0.00047
685.88	0.08564	0.00051
685.92	0.08967	0.00025
685.95	0.08839	0.00027
686.0	0.08315	0.0005
686.04	0.09155	0.0004
686.07	0.09145	0.00042
686.12	0.08386	0.00031
686.16	0.08941	0.00036
686.19	0.08855	0.00041
686.24	0.08381	0.00042
686.28	0.08839	0.00036
686.31	0.08483	0.00036
686.36	0.0917	0.00041
686.4	0.0917	0.00034
686.43	0.08682	0.00051
686.48	0.09145	0.00036
686.52	0.0857	0.00038
686.56	0.08473	0.00036
686.6	0.08671	0.00031
686.64	0.08778	0.00015
686.68	0.08758	0.00025
686.72	0.08951	0.00046
686.76	0.08763	0.00041
686.8	0.08946	0.00044
686.84	0.08381	0.00053
686.88	0.09522	0.00041
686.92	0.08661	0.00041
686.95	0.08687	0.00042
687.0	0.09323	0.00041
687.04	0.08855	0.00041
687.07	0.08773	0.00031
687.12	0.09048	0.0005
687.16	0.09028	0.00059
687.19	0.08997	0.00031
687.24	0.08758	0.00034
687.28	0.08743	0.00038
687.31	0.08829	0.00042
687.36	0.08758	0.00034
687.4	0.08768	0.00023
687.43	0.08778	0.00036
687.48	0.08666	0.00046
687.52	0.08844	0.00038
687.56	0.08875	0.00038
687.6	0.09048	0.00044
687.64	0.08559	0.00041
687.68	0.09211	0.00034
687.72	0.08931	0.00036
687.76	0.08152	0.00052
687.8	0.08651	0.00025
687.84	0.08183	0.00031
687.88	0.08188	0.0004
687.92	0.08788	0.00062
687.95	0.08972	0.00023
688.0	0.0858	0.00046
688.04	0.08493	0.00033
688.07	0.08605	0.00041
688.12	0.08595	0.00046
688.16	0.08554	0.00052
688.19	0.09236	0.00036
688.24	0.08778	0.00053
688.28	0.09023	0.0004
688.31	0.08641	0.00038
688.36	0.08768	0.00046
688.4	0.09231	0.0005
688.43	0.09231	0.00031
688.48	0.08646	0.0004
688.52	0.0885	0.00033
688.56	0.08763	0.00041
688.6	0.08661	0.00047
688.64	0.08839	0.00036
688.68	0.0885	0.0004
688.72	0.08177	0.00048
688.76	0.08198	0.00034
688.8	0.0886	0.00025
688.84	0.09435	0.00031
688.88	0.08844	0.00038
688.92	0.08396	0.00034
688.95	0.08661	0.00041
689.0	0.08315	0.00055
689.04	0.0832	0.00058
689.07	0.08967	0.00041
689.12	0.09048	0.0005
689.16	0.0886	0.00041
689.19	0.08783	0.00032
689.24	0.08972	0.00033
689.28	0.08498	0.00041
689.31	0.08493	0.00046
689.36	0.08473	0.00058
689.4	0.08982	0.00036
689.43	0.08289	0.0004
689.48	0.09058	0.00061
689.52	0.08977	0.00031
689.56	0.09333	0.00044
689.6	0.08401	0.00041
689.64	0.08417	0.00044
689.68	0.08768	0.00023
689.72	0.086	0.00034
689.76	0.09058	0.00061
689.8	0.08951	0.00068
689.84	0.08941	0.00042
689.88	0.08483	0.00042
689.92	0.08488	0.0005
689.95	0.08844	0.00044
690.0	0.09247	0.00048
690.04	0.08585	0.00027
690.07	0.08702	0.00052
690.12	0.08478	0.00032
690.16	0.09155	0.0004
690.19	0.09175	0.00051
690.24	0.0916	0.00052
690.28	0.09033	0.00027
690.31	0.08839	0.00036
690.36	0.08773	0.00031
690.4	0.09119	0.00047
690.43	0.0857	0.00055
690.48	0.08962	0.00034
690.52	0.08921	0.00051
690.56	0.08274	0.00039
690.6	0.09242	0.00051
690.64	0.08778	0.00042
690.68	0.08946	0.00031
690.72	0.08778	0.00027
690.76	0.08213	0.00031
690.8	0.08198	0.00052
690.84	0.0885	0.0006
690.88	0.08386	0.00038
690.92	0.09145	0.00036
690.95	0.0915	0.00038
691.0	0.09231	0.00038
691.04	0.0887	0.00051
691.07	0.08773	0.00031
691.12	0.08763	0.00052
691.16	0.0885	0.00046
691.19	0.08875	0.00031
691.24	0.08865	0.00025
691.28	0.08875	0.00031
691.31	0.08676	0.00048
691.36	0.09068	0.00041
691.4	0.09038	0.00032
691.43	0.08661	0.00065
691.48	0.0857	0.00044
691.52	0.08844	0.00038
691.56	0.0885	0.00051
691.6	0.08488	0.00044
691.64	0.08768	0.00046
691.68	0.08783	0.00051
691.72	0.08748	0.00046
691.76	0.08468	0.00038
691.8	0.08666	0.00046
691.84	0.08783	0.00032
691.88	0.08671	0.00044
691.92	0.0859	0.00038
691.95	0.08753	0.00041
692.0	0.08773	0.00038
692.04	0.08967	0.00047
692.07	0.09155	0.0004
692.12	0.08865	0.00034
692.16	0.08758	0.00047
692.19	0.09338	0.00058
692.24	0.09155	0.0004
692.28	0.09175	0.00033
692.31	0.08692	0.00038
692.36	0.09023	0.00033
692.4	0.08758	0.00041
692.43	0.08951	0.00051
692.48	0.08834	0.00046
692.52	0.08661	0.00025
692.56	0.09155	0.00056
692.6	0.09135	0.00036
692.64	0.08783	0.00032
692.68	0.08946	0.00038
692.72	0.08692	0.00064
692.76	0.08773	0.0002
692.8	0.0885	0.00056
692.84	0.09048	0.00038
692.88	0.09048	0.00031
692.92	0.08748	0.00033
692.95	0.08839	0.00027
693.0	0.0858	0.00039
693.04	0.09308	0.0004
693.07	0.08483	0.00058
693.12	0.08284	0.0005
693.16	0.08279	0.00066
693.19	0.08834	0.00032
693.24	0.09807	0.00048
693.28	0.08595	0.0004
693.31	0.08585	0.00036
693.36	0.08967	0.00041
693.4	0.08855	0.00034
693.43	0.09415	0.00047
693.48	0.0942	0.00041
693.52	0.09145	0.00048
693.56	0.08829	0.00036
693.6	0.09135	0.00058
693.64	0.08773	0.00038
693.68	0.09267	0.00047
693.72	0.08956	0.00041
693.76	0.08956	0.00057
693.8	0.08844	0.0005
693.84	0.0885	0.00033
693.88	0.08666	0.0004
693.92	0.0857	0.00038
693.95	0.0917	0.00025
694.0	0.0914	0.00039
694.04	0.09135	0.00042
694.07	0.08773	0.00031
694.12	0.08651	0.00034
694.16	0.08641	0.00031
694.19	0.08671	0.00055
694.24	0.08941	0.00053
694.28	0.08391	0.00033
694.31	0.0858	0.00046
694.36	0.086	0.00025
694.4	0.08661	0.00047
694.43	0.08946	0.00055
694.48	0.08829	0.00042
694.52	0.08585	0.00042
694.56	0.09145	0.00027
694.6	0.0915	0.00038
694.64	0.09145	0.00048
694.68	0.08977	0.00038
694.72	0.08788	0.00042
694.76	0.0916	0.00034
694.8	0.08381	0.00042
694.84	0.09476	0.00041
694.88	0.08712	0.00052
694.92	0.0888	0.00036
694.95	0.0887	0.00056
695.0	0.08651	0.00034
695.04	0.08758	0.00047
695.07	0.0885	0.00046
695.12	0.08834	0.00032
695.16	0.0858	0.00039
695.19	0.09221	0.00034
695.24	0.09231	0.00031
695.28	0.08478	0.00032
695.31	0.09216	0.00025
695.36	0.08844	0.00038
695.4	0.0886	0.00034
695.43	0.0831	0.00051
695.48	0.09135	0.00036
695.52	0.0913	0.0005
695.56	0.0886	0.00025
695.6	0.08595	0.00033
695.64	0.08773	0.00031
695.68	0.08656	0.00052
695.72	0.0913	0.0002
695.76	0.08284	0.00038
695.8	0.0857	0.00038
695.84	0.0858	0.00032
695.88	0.09338	0.00042
695.92	0.09379	0.00046
695.95	0.08783	0.00032
696.0	0.08096	0.00041
696.04	0.08381	0.00048
696.07	0.08483	0.00036
696.12	0.08483	0.00048
696.16	0.08656	0.00041
696.19	0.09033	0.00042
696.24	0.08946	0.00038
696.28	0.08447	0.00025
696.31	0.09155	0.00046
696.36	0.0887	0.00033
696.4	0.08855	0.00041
696.43	0.08788	0.00027
696.48	0.08488	0.00064
696.52	0.0858	0.00032
696.56	0.08936	0.00039
696.6	0.08855	0.00047
696.64	0.08585	0.00042
696.68	0.08697	0.0004
696.72	0.08666	0.00046
696.76	0.08585	0.00042
696.8	0.09135	0.00036
696.84	0.08967	0.00025
696.88	0.08585	0.00048
696.92	0.08967	0.00041
696.95	0.08956	0.00061
697.0	0.08951	0.00056
697.04	0.09043	0.00048
697.07	0.08671	0.00055
697.12	0.08783	0.00056
697.16	0.0858	0.0006
697.19	0.08274	0.00051
697.24	0.09328	0.0004
697.28	0.08753	0.00047
697.31	0.08778	0.00027
697.36	0.08682	0.00032
697.4	0.09155	0.00056
697.43	0.08661	0.00034
697.48	0.08687	0.00015
697.52	0.08885	0.00051
697.56	0.08778	0.00036
697.6	0.08763	0.00034
697.64	0.08844	0.00038
697.68	0.08401	0.00047
697.72	0.0915	0.00031
697.76	0.08962	0.00025
697.8	0.08468	0.0005
697.84	0.08412	0.0004
697.88	0.08391	0.00033
697.92	0.08773	0.00031
697.95	0.08834	0.0006
698.0	0.0886	0.00025
698.04	0.08483	0.00053
698.07	0.08962	0.00025
698.12	0.08748	0.00023
698.16	0.08855	0.00052
698.19	0.0887	0.00033
698.24	0.09242	0.00032
698.28	0.09247	0.00042
698.31	0.08962	0.00065
698.36	0.08605	0.00034
698.4	0.09165	0.00057
698.43	0.08376	0.00023
698.48	0.08407	0.00047
698.52	0.08661	0.00041
698.56	0.08381	0.00042
698.6	0.08875	0.00038
698.64	0.0858	0.00046
698.68	0.08748	0.0004
698.72	0.09038	0.00023
698.76	0.09028	0.00031
698.8	0.09231	0.00038
698.84	0.0886	0.00047
698.88	0.08773	0.00031
698.92	0.08478	0.00039
698.95	0.09058	0.00041
699.0	0.08386	0.00044
699.04	0.09028	0.00055
699.07	0.09048	0.00038
699.12	0.08809	0.00025
699.16	0.09114	0.00034
699.19	0.08783	0.00023
699.24	0.09048	0.00064
699.28	0.0885	0.00023
699.31	0.09216	0.00025
699.36	0.09231	0.0005
699.4	0.09114	0.00052
699.43	0.0944	0.00036
699.48	0.08962	0.00041
699.52	0.08967	0.00052
699.56	0.08962	0.00047
699.6	0.08778	0.00036
699.64	0.08661	0.00025
699.68	0.08671	0.00044
699.72	0.08844	0.0005
699.76	0.0914	0.0006
699.8	0.08941	0.00058
699.84	0.0885	0.0004
699.88	0.08844	0.00038
699.92	0.08687	0.00066
699.95	0.08661	0.00041
700.0	0.08936	0.00039
700.04	0.08666	0.0004
700.07	0.08844	0.00055
700.12	0.08121	0.00051
700.16	0.08855	0.00047
700.19	0.08773	0.00059
700.24	0.08758	0.00034
700.28	0.09405	0.00038
700.31	0.0858	0.00046
700.36	0.0914	0.00039
