Waveleght	Intensity	Error
570.43	0.07653	0.00064
570.48	0.07648	0.00046
570.52	0.07933	0.00033
570.56	0.08305	0.00047
570.6	0.07897	0.00052
570.64	0.07612	0.00056
570.68	0.07796	0.00041
570.72	0.08106	0.0004
570.76	0.08106	0.0004
570.8	0.07816	0.00032
570.84	0.07913	0.00042
570.88	0.08096	0.00034
570.92	0.08233	0.0005
570.95	0.07541	0.00047
571.0	0.08213	0.00038
571.04	0.08157	0.00167
571.07	0.07729	0.00046
571.12	0.07908	0.00044
571.16	0.08376	0.00056
571.19	0.0831	0.00023
571.24	0.08198	0.00025
571.28	0.07821	0.00036
571.31	0.08396	0.00025
571.36	0.08412	0.00033
571.4	0.08203	0.00057
571.43	0.07724	0.00031
571.48	0.07847	0.00052
571.52	0.08132	0.00044
571.56	0.0803	0.0005
571.6	0.08188	0.0004
571.64	0.08188	0.00046
571.68	0.07521	0.00038
571.72	0.08478	0.00023
571.76	0.07368	0.00038
571.8	0.08177	0.00027
571.84	0.08004	0.0004
571.88	0.08106	0.00046
571.92	0.08473	0.00042
571.95	0.08478	0.00039
572.0	0.07999	0.00034
572.04	0.08172	0.00032
572.07	0.0831	0.00051
572.12	0.07735	0.00052
572.16	0.07908	0.0005
572.19	0.07918	0.0006
572.24	0.07913	0.00053
572.28	0.08391	0.00033
572.31	0.07923	0.00036
572.36	0.08198	0.00052
572.4	0.07826	0.00044
572.43	0.07831	0.00051
572.48	0.08295	0.00047
572.52	0.0833	0.00036
572.56	0.08223	0.00039
572.6	0.07933	0.0004
572.64	0.07816	0.00032
572.68	0.07999	0.00047
572.72	0.08396	0.00047
572.76	0.08015	0.00036
572.8	0.08386	0.00038
572.84	0.08396	0.00041
572.88	0.08386	0.00031
572.92	0.08091	0.00047
572.95	0.07745	0.00047
573.0	0.07724	0.00038
573.04	0.07831	0.00051
573.07	0.086	0.00041
573.12	0.08605	0.00034
573.16	0.083	0.00041
573.19	0.07623	0.00031
573.24	0.08081	0.00044
573.28	0.08101	0.00034
573.31	0.07266	0.00031
573.36	0.07724	0.00055
573.4	0.07714	0.00039
573.43	0.08188	0.00046
573.48	0.07714	0.00032
573.52	0.08183	0.00038
573.56	0.0802	0.00032
573.6	0.08004	0.0004
573.64	0.0803	0.00044
573.68	0.08279	0.00036
573.72	0.08284	0.00055
573.76	0.07923	0.00048
573.8	0.07923	0.00036
573.84	0.08203	0.00052
573.88	0.07811	0.00053
573.92	0.07933	0.00046
573.95	0.08468	0.00044
574.0	0.08498	0.00025
574.04	0.07623	0.00044
574.07	0.07923	0.00048
574.12	0.08213	0.00055
574.16	0.08412	0.00023
574.19	0.08325	0.00046
574.24	0.07938	0.00047
574.28	0.07903	0.00046
574.31	0.07903	0.00056
574.36	0.08855	0.00052
574.4	0.08295	0.00057
574.43	0.08203	0.00034
574.48	0.07617	0.00042
574.52	0.08412	0.00033
574.56	0.07933	0.00023
574.6	0.07918	0.00039
574.64	0.0859	0.00031
574.68	0.07826	0.00038
574.72	0.08676	0.00036
574.76	0.0832	0.00048
574.8	0.08865	0.00061
574.84	0.07923	0.00036
574.88	0.07908	0.00044
574.92	0.08289	0.00056
574.95	0.08279	0.00048
575.0	0.083	0.00041
575.04	0.08401	0.00041
575.07	0.08188	0.00051
575.12	0.08396	0.00041
575.16	0.08396	0.00034
575.19	0.08412	0.00033
575.24	0.08223	0.00039
575.28	0.0832	0.00048
575.31	0.07979	0.00059
575.36	0.08009	0.00031
575.4	0.08081	0.00055
575.43	0.08132	0.00044
575.48	0.08111	0.0005
575.52	0.08488	0.0005
575.56	0.08396	0.00034
575.6	0.08407	0.00025
575.64	0.08203	0.00034
575.68	0.08203	0.00041
575.72	0.08188	0.0004
575.76	0.08198	0.00025
575.8	0.08086	0.0006
575.84	0.08295	0.00025
575.88	0.07989	0.00025
575.92	0.08086	0.0004
575.95	0.08004	0.0004
576.0	0.08381	0.00042
576.04	0.07821	0.00027
576.07	0.07811	0.00015
576.12	0.08595	0.0004
576.16	0.09043	0.00058
576.19	0.08106	0.00046
576.24	0.08396	0.00025
576.28	0.08315	0.00038
576.31	0.08478	0.00032
576.36	0.08503	0.00041
576.4	0.08391	0.00046
576.43	0.08376	0.00032
576.48	0.07908	0.00038
576.52	0.08188	0.00046
576.56	0.08783	0.00039
576.6	0.08549	0.00041
576.64	0.08595	0.0004
576.68	0.08778	0.00027
576.72	0.09043	0.00058
576.76	0.08962	0.00025
576.8	0.08605	0.00041
576.84	0.09165	0.00025
576.88	0.08015	0.00042
576.92	0.08391	0.0004
576.95	0.08407	0.00025
577.0	0.08289	0.00033
577.04	0.08503	0.00034
577.07	0.08875	0.00068
577.12	0.08391	0.00033
577.16	0.08585	0.00048
577.19	0.083	0.00041
577.24	0.0832	0.00048
577.28	0.086	0.00034
577.31	0.08009	0.00044
577.36	0.08177	0.00036
577.4	0.08203	0.00025
577.43	0.08478	0.00056
577.48	0.08203	0.00034
577.52	0.08203	0.00047
577.56	0.08096	0.00052
577.6	0.0858	0.00051
577.64	0.08111	0.00044
577.68	0.08025	0.00042
577.72	0.07841	0.00034
577.76	0.08009	0.00031
577.8	0.08514	0.00051
577.84	0.08483	0.00027
577.88	0.08203	0.00041
577.92	0.08025	0.00048
577.95	0.07826	0.00038
578.0	0.08478	0.00023
578.04	0.07796	0.00052
578.07	0.07821	0.00036
578.12	0.07836	0.00025
578.16	0.07913	0.00042
578.19	0.07989	0.00041
578.24	0.0802	0.00046
578.28	0.07623	0.00038
578.31	0.07908	0.00038
578.36	0.07923	0.00042
578.4	0.08004	0.00051
578.43	0.08004	0.0004
578.48	0.07918	0.0
578.52	0.08198	0.00034
578.56	0.08198	0.00047
578.6	0.08009	0.00038
578.64	0.08096	0.00041
578.68	0.08289	0.00056
578.72	0.083	0.00057
578.76	0.08188	0.0004
578.8	0.08132	0.00031
578.84	0.08015	0.00036
578.88	0.07913	0.00062
578.92	0.08091	0.00061
578.95	0.07816	0.00039
579.0	0.07801	0.00023
579.04	0.0775	0.0004
579.07	0.08289	0.0004
579.12	0.08203	0.00034
579.16	0.07709	0.00042
579.19	0.08284	0.00038
579.24	0.08091	0.00025
579.28	0.07994	0.00034
579.31	0.08025	0.00042
579.36	0.08183	0.00031
579.4	0.07755	0.00038
579.43	0.07526	0.00033
579.48	0.08284	0.00031
579.52	0.07638	0.00041
579.56	0.07923	0.00042
579.6	0.07923	0.00036
579.64	0.07526	0.0004
579.68	0.0775	0.00033
579.72	0.08274	0.00039
579.76	0.07913	0.00053
579.8	0.08401	0.00034
579.84	0.07745	0.00041
579.88	0.07719	0.00042
579.92	0.07989	0.00025
579.95	0.08193	0.00025
580.0	0.08498	0.00052
580.04	0.08004	0.0004
580.07	0.08208	0.00046
580.12	0.08193	0.00034
580.16	0.08101	0.00034
580.19	0.08111	0.0005
580.24	0.08473	0.00027
580.28	0.08274	0.00046
580.31	0.07913	0.00042
580.36	0.08183	0.00038
580.4	0.07913	0.00048
580.43	0.07999	0.00034
580.48	0.08015	0.00042
580.52	0.08371	0.00066
580.56	0.08009	0.00031
580.6	0.08671	0.00031
580.64	0.08177	0.00027
580.68	0.08839	0.00036
580.72	0.08101	0.00047
580.76	0.08091	0.00052
580.8	0.08651	0.00034
580.84	0.0802	0.00032
580.88	0.07903	0.00033
580.92	0.07903	0.0004
580.95	0.08183	0.00031
581.0	0.07938	0.00034
581.04	0.08417	0.00031
581.07	0.08381	0.00036
581.12	0.08407	0.00041
581.16	0.08183	0.00031
581.19	0.08116	0.00036
581.24	0.08193	0.00034
581.28	0.08188	0.00023
581.31	0.08172	0.00056
581.36	0.08193	0.00034
581.4	0.07984	0.0004
581.43	0.08295	0.00034
581.48	0.08198	0.00025
581.52	0.08412	0.00033
581.56	0.08295	0.00034
581.6	0.08794	0.00038
581.64	0.0858	0.00046
581.68	0.086	0.00025
581.72	0.08376	0.00039
581.76	0.08697	0.00033
581.8	0.08768	0.00023
581.84	0.08962	0.00041
581.88	0.08585	0.00036
581.92	0.09236	0.00042
581.95	0.09262	0.00041
582.0	0.08661	0.00041
582.04	0.08773	0.00038
582.07	0.09063	0.00034
582.12	0.08009	0.00059
582.16	0.08595	0.00033
582.19	0.08417	0.0002
582.24	0.08401	0.00034
582.28	0.08386	0.00044
582.31	0.08946	0.0005
582.36	0.08768	0.00033
582.4	0.08666	0.00033
582.43	0.08758	0.00034
582.48	0.07999	0.00025
582.52	0.08651	0.00041
582.56	0.08666	0.00033
582.6	0.08478	0.00032
582.64	0.07918	0.00039
582.68	0.07933	0.00033
582.72	0.08137	0.0004
582.76	0.08193	0.00034
582.8	0.08585	0.00062
582.84	0.08559	0.00041
582.88	0.08493	0.0004
582.92	0.08666	0.00033
582.95	0.08412	0.0004
583.0	0.08091	0.00041
583.04	0.08386	0.00031
583.07	0.08295	0.00034
583.12	0.08259	0.00046
583.16	0.08376	0.00023
583.19	0.08009	0.00038
583.24	0.08498	0.00057
583.28	0.07826	0.00038
583.31	0.08111	0.00055
583.36	0.0832	0.00042
583.4	0.07994	0.00041
583.43	0.08015	0.00036
583.48	0.0861	0.00034
583.52	0.07724	0.00055
583.56	0.08279	0.00036
583.6	0.0774	0.00025
583.64	0.07999	0.00034
583.68	0.08493	0.0004
583.72	0.08483	0.00042
583.76	0.08193	0.00025
583.8	0.07816	0.00032
583.84	0.07989	0.00025
583.88	0.08071	0.00046
583.92	0.08101	0.00041
583.95	0.07719	0.00027
584.0	0.07719	0.00036
584.04	0.07531	0.00025
584.07	0.07765	0.00023
584.12	0.0802	0.00032
584.16	0.08401	0.00034
584.19	0.08076	0.00015
584.24	0.0774	0.00041
584.28	0.08773	0.00031
584.31	0.08763	0.00025
584.36	0.07918	0.00039
584.4	0.07847	0.00034
584.43	0.08188	0.0004
584.48	0.07801	0.00033
584.52	0.08188	0.00033
584.56	0.08086	0.00046
584.6	0.08101	0.00047
584.64	0.08198	0.00025
584.68	0.07999	0.00052
584.72	0.08188	0.0004
584.76	0.0831	0.00023
584.8	0.08407	0.00034
584.84	0.08595	0.00046
584.88	0.07918	0.00046
584.92	0.07913	0.00042
584.95	0.08284	0.00044
585.0	0.08483	0.00027
585.04	0.07638	0.00034
585.07	0.08289	0.0004
585.12	0.07918	0.00039
585.16	0.08412	0.00033
585.19	0.08401	0.00025
585.24	0.08401	0.00047
585.28	0.08274	0.00046
585.31	0.08605	0.00034
585.36	0.07826	0.00031
585.4	0.08106	0.0004
585.43	0.08086	0.00033
585.48	0.08127	0.00042
585.52	0.07826	0.0002
585.56	0.0802	0.00051
585.6	0.08295	0.00069
585.64	0.07903	0.00033
585.68	0.08198	0.00041
585.72	0.08009	0.0005
585.76	0.08004	0.00046
585.8	0.08015	0.00042
585.84	0.08086	0.0004
585.88	0.08386	0.00038
585.92	0.08289	0.00046
585.95	0.0859	0.00055
586.0	0.08004	0.00051
586.04	0.08086	0.00056
586.07	0.08076	0.00036
586.12	0.08101	0.00057
586.16	0.08198	0.00041
586.19	0.07821	0.00027
586.24	0.0832	0.00027
586.28	0.07811	0.00058
586.31	0.08198	0.00034
586.36	0.08208	0.00023
586.4	0.08106	0.0004
586.43	0.08585	0.00053
586.48	0.08086	0.00046
586.52	0.08376	0.00056
586.56	0.08081	0.00031
586.6	0.07821	0.00053
586.64	0.07984	0.00023
586.68	0.07979	0.00031
586.72	0.08305	0.00041
586.76	0.08096	0.00034
586.8	0.08407	0.00025
586.84	0.08035	0.00033
586.88	0.0858	0.00051
586.92	0.08203	0.00034
586.95	0.08228	0.00048
587.0	0.08575	0.00042
587.04	0.0859	0.00038
587.07	0.08682	0.00046
587.12	0.086	0.00034
587.16	0.08396	0.00041
587.19	0.083	0.00047
587.24	0.0858	0.00039
587.28	0.08585	0.00036
587.31	0.09058	0.00061
587.36	0.08885	0.00039
587.4	0.09364	0.00041
587.43	0.08763	0.00025
587.48	0.08687	0.00036
587.52	0.08753	0.00041
587.56	0.08768	0.00023
587.6	0.09226	0.00033
587.64	0.08381	0.00036
587.68	0.08198	0.00025
587.72	0.08401	0.00057
587.76	0.09252	0.00031
587.8	0.08982	0.00036
587.84	0.08941	0.00058
587.88	0.08407	0.00041
587.92	0.08967	0.00047
587.95	0.08305	0.00034
588.0	0.08463	0.00023
588.04	0.08651	0.00041
588.07	0.07923	0.00053
588.12	0.07897	0.00057
588.16	0.07948	0.00025
588.19	0.08463	0.00023
588.24	0.08768	0.00051
588.28	0.07903	0.00033
588.31	0.08778	0.00062
588.36	0.08213	0.00044
588.4	0.08009	0.00031
588.43	0.07999	0.00052
588.48	0.08514	0.0004
588.52	0.08778	0.00042
588.56	0.08366	0.0005
588.6	0.07918	0.00046
588.64	0.08096	0.00047
588.68	0.08183	0.00031
588.72	0.08172	0.0006
588.76	0.08183	0.00038
588.8	0.07831	0.0004
588.84	0.08493	0.00023
588.88	0.08284	0.00064
588.92	0.07999	0.00041
588.95	0.08009	0.0005
589.0	0.07994	0.00041
589.04	0.07999	0.00025
589.07	0.08183	0.0002
589.12	0.08009	0.00031
589.16	0.07801	0.00033
589.19	0.08188	0.00033
589.24	0.08289	0.0006
589.28	0.083	0.00052
589.31	0.083	0.00047
589.36	0.08468	0.0005
589.4	0.08004	0.00033
589.43	0.08305	0.00041
589.48	0.08127	0.00042
589.52	0.08478	0.00046
589.56	0.07836	0.00025
589.6	0.07816	0.00023
589.64	0.07638	0.00052
589.68	0.08295	0.00034
589.72	0.08305	0.00041
589.76	0.08015	0.00027
589.8	0.08391	0.00023
589.84	0.07714	0.00051
589.88	0.07999	0.00041
589.92	0.08025	0.00042
589.95	0.086	0.00047
590.0	0.07836	0.00047
590.04	0.08575	0.00042
590.07	0.0885	0.0004
590.12	0.08396	0.00041
590.16	0.08829	0.00042
590.19	0.08855	0.00061
590.24	0.0802	0.00051
590.28	0.0859	0.00044
590.31	0.08855	0.00041
590.36	0.08391	0.00046
590.4	0.08473	0.00042
590.43	0.08391	0.00046
590.48	0.08585	0.00036
590.52	0.0857	0.0005
590.56	0.08203	0.00041
590.6	0.08193	0.00052
590.64	0.08493	0.00023
590.68	0.08473	0.00036
590.72	0.08768	0.00023
590.76	0.08488	0.0002
590.8	0.08488	0.0005
590.84	0.08396	0.00034
590.88	0.08396	0.00041
590.92	0.08788	0.00042
590.95	0.08478	0.00032
591.0	0.08697	0.00046
591.04	0.09058	0.00047
591.07	0.09063	0.00041
591.12	0.07933	0.0004
591.16	0.08111	0.00038
591.19	0.08371	0.00053
591.24	0.08498	0.00041
591.28	0.08305	0.00025
591.31	0.08758	0.00025
591.36	0.08391	0.00023
591.4	0.08396	0.00047
591.43	0.08295	0.00034
591.48	0.08386	0.00038
591.52	0.08203	0.00025
591.56	0.08422	0.00027
591.6	0.08295	0.00034
591.64	0.08289	0.00065
591.68	0.08274	0.00039
591.72	0.08834	0.00032
591.76	0.08783	0.00039
591.8	0.083	0.00041
591.84	0.08682	0.00056
591.88	0.08274	0.00023
591.92	0.08743	0.00038
591.95	0.08778	0.00036
592.0	0.08758	0.00025
592.04	0.08081	0.00044
592.07	0.08091	0.00047
592.12	0.0802	0.00032
592.16	0.08564	0.00046
592.19	0.08478	0.00023
592.24	0.08183	0.0005
592.28	0.08183	0.00038
592.31	0.08478	0.00039
592.36	0.08284	0.00055
592.4	0.08407	0.00041
592.43	0.083	0.00052
592.48	0.08289	0.00033
592.52	0.08198	0.00052
592.56	0.08193	0.00041
592.6	0.08193	0.00034
592.64	0.08009	0.00038
592.68	0.07638	0.00047
592.72	0.0832	0.00048
592.76	0.08213	0.00064
592.8	0.08101	0.00041
592.84	0.08203	0.00069
592.88	0.08198	0.00034
592.92	0.08289	0.0004
592.95	0.08183	0.00031
593.0	0.08575	0.00042
593.04	0.08452	0.00025
593.07	0.08778	0.00048
593.12	0.08106	0.00051
593.16	0.08142	0.00034
593.19	0.07918	0.00051
593.24	0.08025	0.00048
593.28	0.08188	0.00023
593.31	0.08004	0.0004
593.36	0.08198	0.00041
593.4	0.08198	0.00047
593.43	0.08183	0.0002
593.48	0.08188	0.00023
593.52	0.08091	0.00025
593.56	0.07933	0.00023
593.6	0.08305	0.00034
593.64	0.0833	0.00036
593.68	0.083	0.00041
593.72	0.08193	0.00047
593.76	0.08213	0.00038
593.8	0.08218	0.00053
593.84	0.08096	0.00034
593.88	0.08305	0.00041
593.92	0.08193	0.00052
593.95	0.08493	0.00033
594.0	0.08213	0.00038
594.04	0.08183	0.00031
594.07	0.07903	0.00023
594.12	0.083	0.00052
594.16	0.07831	0.00033
594.19	0.08605	0.00041
594.24	0.08004	0.00033
594.28	0.08213	0.00044
594.31	0.08193	0.00041
594.36	0.08401	0.00057
594.4	0.07908	0.00055
594.43	0.08004	0.00046
594.48	0.08177	0.00015
594.52	0.08498	0.00057
594.56	0.08004	0.00033
594.6	0.08386	0.00038
594.64	0.08412	0.00033
594.68	0.08682	0.00046
594.72	0.07821	0.00048
594.76	0.07897	0.00047
594.8	0.08376	0.00039
594.84	0.08106	0.0004
594.88	0.08295	0.00034
594.92	0.08259	0.00046
594.95	0.08086	0.00051
595.0	0.08193	0.00034
595.04	0.08009	0.0005
595.07	0.08468	0.0002
595.12	0.083	0.00041
595.16	0.0803	0.00064
595.19	0.08015	0.00036
595.24	0.08503	0.00034
595.28	0.0889	0.00048
595.31	0.08218	0.00053
595.36	0.08401	0.00034
595.4	0.083	0.00025
595.43	0.08381	0.00042
595.48	0.08198	0.00034
595.52	0.08203	0.00052
595.56	0.08575	0.00048
595.6	0.08116	0.00027
595.64	0.07903	0.00051
595.68	0.0803	0.00031
595.72	0.08483	0.00053
595.76	0.0802	0.00046
595.8	0.08009	0.0002
595.84	0.08015	0.00036
595.88	0.08483	0.00048
595.92	0.08289	0.0004
595.95	0.08203	0.00041
596.0	0.08391	0.00033
596.04	0.08183	0.00031
596.07	0.08295	0.00052
596.12	0.083	0.00041
596.16	0.08188	0.0004
596.19	0.0833	0.00053
596.24	0.08086	0.0006
596.28	0.08305	0.00041
596.31	0.07847	0.00047
596.36	0.08463	0.00033
596.4	0.08458	0.00025
596.43	0.08473	0.00036
596.48	0.07806	0.00031
596.52	0.08855	0.00025
596.56	0.0831	0.00051
596.6	0.083	0.00047
596.64	0.08025	0.00053
596.68	0.08004	0.00033
596.72	0.08218	0.00042
596.76	0.08646	0.00023
596.8	0.08401	0.00034
596.84	0.08391	0.00023
596.88	0.07923	0.00042
596.92	0.08488	0.00031
596.95	0.08284	0.0005
597.0	0.08269	0.00036
597.04	0.08412	0.00023
597.07	0.08447	0.00034
597.12	0.086	0.00034
597.16	0.08279	0.00048
597.19	0.08682	0.0006
597.24	0.08743	0.00044
597.28	0.08768	0.0004
597.31	0.08412	0.00033
597.36	0.08188	0.00023
597.4	0.08208	0.00033
597.43	0.08284	0.0005
597.48	0.08962	0.00041
597.52	0.08086	0.00033
597.56	0.0806	0.00038
597.6	0.08401	0.00025
597.64	0.08773	0.00031
597.68	0.08407	0.00047
597.72	0.08483	0.00036
597.76	0.08386	0.00038
597.8	0.0861	0.00034
597.84	0.08804	0.00025
597.88	0.08783	0.00032
597.92	0.08585	0.00036
597.95	0.08865	0.00025
598.0	0.08101	0.00034
598.04	0.08682	0.00051
598.07	0.08763	0.00041
598.12	0.08391	0.0004
598.16	0.08401	0.00025
598.19	0.08015	0.00048
598.24	0.08386	0.00031
598.28	0.08284	0.0005
598.31	0.086	0.00047
598.36	0.08468	0.00038
598.4	0.08188	0.00023
598.43	0.086	0.00034
598.48	0.08595	0.00033
598.52	0.08468	0.00038
598.56	0.08289	0.00046
598.6	0.08407	0.00041
598.64	0.08768	0.00023
598.68	0.08768	0.0004
598.72	0.08376	0.00039
598.76	0.08361	0.0004
598.8	0.08483	0.00036
598.84	0.08778	0.00036
598.88	0.08407	0.00034
598.92	0.08407	0.00047
598.95	0.08463	0.00068
599.0	0.08473	0.00027
599.04	0.08498	0.00073
599.07	0.08778	0.00042
599.12	0.08514	0.00046
599.16	0.08305	0.00041
599.19	0.08463	0.00051
599.24	0.08269	0.00042
599.28	0.07811	0.00027
599.31	0.08401	0.00052
599.36	0.08391	0.0004
599.4	0.08676	0.00042
599.43	0.08396	0.00047
599.48	0.07903	0.00056
599.52	0.08305	0.00057
599.56	0.08111	0.0005
599.6	0.08473	0.00048
599.64	0.08478	0.00046
599.68	0.08101	0.00047
599.72	0.0831	0.0004
599.76	0.08595	0.00033
599.8	0.08198	0.00034
599.84	0.08188	0.00023
599.88	0.08116	0.00036
599.92	0.08101	0.00052
599.95	0.08875	0.0005
600.0	0.07913	0.00048
600.04	0.08407	0.00034
600.07	0.07999	0.00041
600.12	0.08488	0.00038
600.16	0.08325	0.00046
600.19	0.08183	0.00044
600.24	0.08213	0.00059
600.28	0.08198	0.00041
600.31	0.08106	0.00046
600.36	0.08172	0.00046
600.4	0.07938	0.00034
600.43	0.08096	0.00025
600.48	0.08407	0.00047
600.52	0.08396	0.00034
600.56	0.08015	0.00042
600.6	0.08121	0.00039
600.64	0.083	0.00025
600.68	0.08157	0.00033
600.72	0.07989	0.00041
600.76	0.0831	0.00033
600.8	0.08295	0.00025
600.84	0.08295	0.00052
600.88	0.08289	0.00056
600.92	0.0832	0.00027
600.95	0.08325	0.00039
601.0	0.08096	0.00034
601.04	0.08004	0.0004
601.07	0.08193	0.00025
601.12	0.08193	0.00034
601.16	0.0774	0.00034
601.19	0.08193	0.00057
601.24	0.07836	0.00041
601.28	0.08198	0.00034
601.31	0.08193	0.00034
601.36	0.08106	0.00046
601.4	0.08106	0.00065
601.43	0.08412	0.0004
601.48	0.08096	0.00034
601.52	0.08284	0.00055
601.56	0.07735	0.00041
601.6	0.08289	0.00046
601.64	0.08488	0.0005
601.68	0.08015	0.00042
601.72	0.0802	0.00039
601.76	0.08463	0.0004
601.8	0.08015	0.00042
601.84	0.07821	0.00042
601.88	0.07999	0.00041
601.92	0.08376	0.00039
601.95	0.0776	0.00042
602.0	0.0775	0.00051
602.04	0.08198	0.00034
602.07	0.08289	0.00033
602.12	0.08391	0.0004
602.16	0.08188	0.00046
602.19	0.08086	0.0004
602.24	0.07903	0.00056
602.28	0.07918	0.00039
602.31	0.07999	0.00041
602.36	0.083	0.00034
602.4	0.08391	0.0004
602.43	0.08218	0.00027
602.48	0.08473	0.00027
602.52	0.08009	0.00044
602.56	0.08473	0.00058
602.6	0.08478	0.00032
602.64	0.08198	0.00041
602.68	0.08025	0.00042
602.72	0.08295	0.00025
602.76	0.07704	0.0005
602.8	0.08096	0.00034
602.84	0.08218	0.00036
602.88	0.08198	0.00025
602.92	0.08483	0.00042
602.95	0.08009	0.00055
603.0	0.08188	0.0006
603.04	0.08193	0.00041
603.07	0.08213	0.00044
603.12	0.07999	0.00041
603.16	0.08009	0.00031
603.19	0.08295	0.00025
603.24	0.07801	0.00033
603.28	0.08269	0.00042
603.31	0.08279	0.00042
603.36	0.08279	0.00048
603.4	0.08386	0.00044
603.43	0.08091	0.00034
603.48	0.08111	0.00055
603.52	0.07836	0.00047
603.56	0.08071	0.00023
603.6	0.07689	0.00057
603.64	0.08127	0.00042
603.68	0.07821	0.00036
603.72	0.08009	0.0005
603.76	0.07999	0.00057
603.8	0.08391	0.00046
603.84	0.08193	0.00041
603.88	0.08091	0.00047
603.92	0.08412	0.00051
603.95	0.07999	0.00034
604.0	0.08315	0.00044
604.04	0.08279	0.00036
604.07	0.08279	0.00048
604.12	0.08091	0.00041
604.16	0.0831	0.00033
604.19	0.08488	0.00055
604.24	0.083	0.00052
604.28	0.08407	0.00034
604.31	0.08666	0.00056
604.36	0.08697	0.00033
604.4	0.08233	0.00044
604.43	0.08554	0.00052
604.48	0.07903	0.00033
604.52	0.08468	0.00038
604.56	0.08564	0.00046
604.6	0.08692	0.00038
604.64	0.08692	0.00068
604.68	0.07989	0.00025
604.72	0.083	0.00025
604.76	0.08213	0.00059
604.8	0.08855	0.00041
604.84	0.08768	0.00023
604.88	0.08335	0.00031
604.92	0.08676	0.00062
604.95	0.08651	0.00025
605.0	0.08773	0.0002
605.04	0.08188	0.00023
605.07	0.0774	0.00057
605.12	0.08483	0.00042
605.16	0.08463	0.0004
605.19	0.08396	0.00034
605.24	0.08386	0.00031
605.28	0.08121	0.00039
605.31	0.08315	0.00044
605.36	0.08203	0.00025
605.4	0.08009	0.00044
605.43	0.0858	0.00032
605.48	0.08004	0.00033
605.52	0.07984	0.00023
605.56	0.08116	0.00048
605.6	0.08564	0.00046
605.64	0.08218	0.00042
605.68	0.08101	0.00041
605.72	0.08198	0.00025
605.76	0.08483	0.00036
605.8	0.08483	0.00036
605.84	0.08493	0.00033
605.88	0.08702	0.00047
605.92	0.07943	0.00025
605.95	0.08193	0.00052
606.0	0.08183	0.00031
606.04	0.07994	0.00041
606.07	0.08473	0.00042
606.12	0.08493	0.0004
606.16	0.0833	0.00036
606.19	0.07551	0.0002
606.24	0.08407	0.00034
606.28	0.08483	0.00048
606.31	0.08407	0.00025
606.36	0.08407	0.00025
606.4	0.07918	0.00046
606.43	0.07928	0.00044
606.48	0.0802	0.00051
606.52	0.07903	0.00051
606.56	0.08183	0.00038
606.6	0.08305	0.00041
606.64	0.07826	0.00031
606.68	0.08605	0.00025
606.72	0.08595	0.00046
606.76	0.08106	0.00023
606.8	0.07704	0.0002
606.84	0.08493	0.0004
606.88	0.08493	0.00065
606.92	0.08004	0.00023
606.95	0.07892	0.00041
607.0	0.07918	0.00039
607.04	0.086	0.00034
607.07	0.07811	0.00053
607.12	0.08071	0.00032
607.16	0.08412	0.00033
607.19	0.08289	0.0004
607.24	0.08269	0.00058
607.28	0.08106	0.00033
607.31	0.08111	0.00038
607.36	0.08376	0.00032
607.4	0.08025	0.00042
607.43	0.08203	0.00034
607.48	0.07984	0.00046
607.52	0.07994	0.00025
607.56	0.08381	0.00053
607.6	0.08381	0.00036
607.64	0.08651	0.00061
607.68	0.08478	0.00051
607.72	0.0885	0.00033
607.76	0.08193	0.00025
607.8	0.08508	0.00052
607.84	0.0858	0.00032
607.88	0.08595	0.00046
607.92	0.08575	0.00042
607.95	0.08855	0.00041
608.0	0.08228	0.00058
608.04	0.08605	0.00047
608.07	0.08289	0.00046
608.12	0.08407	0.00065
608.16	0.08488	0.00031
608.19	0.08473	0.00042
608.24	0.07999	0.00041
608.28	0.08381	0.00027
608.31	0.0858	0.00046
608.36	0.08508	0.00047
608.4	0.09043	0.00053
608.43	0.08193	0.00034
608.48	0.08213	0.00044
608.52	0.08473	0.00053
608.56	0.08788	0.00036
608.6	0.08401	0.00052
608.64	0.08753	0.00041
608.68	0.08651	0.00034
608.72	0.08025	0.00053
608.76	0.07984	0.00033
608.8	0.08116	0.00027
608.84	0.08412	0.00046
608.88	0.08111	0.00055
608.92	0.0859	0.00031
608.95	0.08483	0.00036
609.0	0.08177	0.00053
609.04	0.07999	0.00025
609.07	0.08015	0.00027
609.12	0.08177	0.00036
609.16	0.08305	0.00047
609.19	0.08483	0.00042
609.24	0.08208	0.00033
609.28	0.08768	0.00046
609.31	0.08223	0.00032
609.36	0.08203	0.00034
609.4	0.08025	0.00027
609.43	0.08386	0.00031
609.48	0.08575	0.00053
609.52	0.0832	0.00042
609.56	0.08396	0.00052
609.6	0.08106	0.0006
609.64	0.0858	0.00039
609.68	0.08575	0.00042
609.72	0.07821	0.00036
609.76	0.08198	0.00041
609.8	0.0831	0.00056
609.84	0.08676	0.00048
609.88	0.08183	0.0002
609.92	0.08437	0.00044
609.95	0.08386	0.00044
610.0	0.08274	0.00051
610.04	0.07989	0.00034
610.07	0.08203	0.00034
610.12	0.08478	0.00056
610.16	0.08478	0.00032
610.19	0.08188	0.00033
610.24	0.08177	0.00053
610.28	0.08386	0.00038
610.31	0.083	0.00069
610.36	0.0831	0.0004
610.4	0.0859	0.00031
610.43	0.07831	0.00023
610.48	0.08468	0.00044
610.52	0.07847	0.00041
610.56	0.07836	0.00025
610.6	0.08315	0.00068
610.64	0.08468	0.00059
610.68	0.08091	0.00047
610.72	0.07729	0.00065
610.76	0.08193	0.00041
610.8	0.08106	0.00046
610.84	0.08121	0.0006
610.88	0.08289	0.0004
610.92	0.08473	0.00036
610.95	0.07999	0.00052
611.0	0.07826	0.00038
611.04	0.07617	0.00053
611.07	0.08391	0.00046
611.12	0.08401	0.00025
611.16	0.08284	0.0005
611.19	0.08091	0.00025
611.24	0.08183	0.0005
611.28	0.08086	0.00056
611.31	0.08116	0.00048
611.36	0.08106	0.0006
611.4	0.08004	0.00033
611.43	0.07994	0.00052
611.48	0.08493	0.00051
611.52	0.08488	0.00055
611.56	0.083	0.00025
611.6	0.08101	0.00057
611.64	0.07811	0.00036
611.68	0.08305	0.00047
611.72	0.083	0.00047
611.76	0.07913	0.00036
611.8	0.08417	0.0002
611.84	0.08407	0.00034
611.88	0.08259	0.00033
611.92	0.08768	0.0004
611.95	0.08091	0.00041
612.0	0.08661	0.00047
612.04	0.08702	0.00041
612.07	0.08305	0.00052
612.12	0.08788	0.00036
612.16	0.08009	0.00038
612.19	0.08269	0.00036
612.24	0.08289	0.00046
612.28	0.08193	0.00034
612.31	0.08218	0.00042
612.36	0.08295	0.00052
612.4	0.08656	0.00034
612.43	0.07811	0.00027
612.48	0.08483	0.00036
612.52	0.08412	0.00046
612.56	0.08101	0.00041
612.6	0.08076	0.00053
612.64	0.08671	0.00044
612.68	0.08498	0.00041
612.72	0.08412	0.0004
612.76	0.08086	0.00051
612.8	0.08498	0.00041
612.84	0.08468	0.00044
612.88	0.08585	0.00053
612.92	0.0857	0.00031
612.95	0.08091	0.00041
613.0	0.08401	0.00034
613.04	0.08004	0.00051
613.07	0.08116	0.00036
613.12	0.08401	0.00041
613.16	0.08208	0.00046
613.19	0.08177	0.00027
613.24	0.07897	0.00057
613.28	0.08478	0.00039
613.31	0.07974	0.00015
613.36	0.08376	0.00032
613.4	0.07628	0.0004
613.43	0.08183	0.00031
613.48	0.08193	0.00041
613.52	0.0831	0.0004
613.56	0.08279	0.00053
613.6	0.08977	0.00044
613.64	0.08213	0.00038
613.68	0.08381	0.00027
613.72	0.08407	0.00065
613.76	0.08081	0.00031
613.8	0.08116	0.00053
613.84	0.07811	0.00036
613.88	0.08177	0.00027
613.92	0.08381	0.00048
613.95	0.07699	0.00046
614.0	0.08656	0.00025
614.04	0.08081	0.00031
614.07	0.08096	0.00041
614.12	0.08829	0.00036
614.16	0.07821	0.00036
614.19	0.08086	0.00046
614.24	0.08483	0.00048
614.28	0.08106	0.00051
614.31	0.08111	0.00031
614.36	0.08177	0.00027
614.4	0.08188	0.00033
614.43	0.08295	0.00057
614.48	0.08575	0.00058
614.52	0.07704	0.00031
614.56	0.08315	0.00044
614.6	0.08208	0.0004
614.64	0.08468	0.0005
614.68	0.08488	0.00044
614.72	0.08213	0.00038
614.76	0.08468	0.00044
614.8	0.08376	0.00039
614.84	0.08086	0.0004
614.88	0.0859	0.00031
614.92	0.08177	0.00036
614.95	0.08177	0.00036
615.0	0.08585	0.00042
615.04	0.07704	0.0005
615.07	0.08585	0.00042
615.12	0.08391	0.00056
615.16	0.08386	0.00038
615.19	0.08305	0.00052
615.24	0.08386	0.00031
615.28	0.08391	0.00033
615.31	0.07984	0.0004
615.36	0.08086	0.00046
615.4	0.08478	0.00032
615.43	0.08768	0.00051
615.48	0.08295	0.00034
615.52	0.08096	0.00057
615.56	0.08071	0.00051
615.6	0.08396	0.00034
615.64	0.08468	0.0002
615.68	0.08768	0.00023
615.72	0.08671	0.00038
615.76	0.07897	0.00041
615.8	0.08193	0.00025
615.84	0.08208	0.00033
615.88	0.08401	0.00025
615.92	0.07826	0.00031
615.95	0.08396	0.00041
616.0	0.08401	0.00041
616.04	0.08111	0.00031
616.07	0.08183	0.0002
616.12	0.07811	0.00036
616.16	0.07821	0.00036
616.19	0.08198	0.00047
616.24	0.07999	0.00057
616.28	0.08824	0.00044
616.31	0.08284	0.00038
616.36	0.08671	0.00044
616.4	0.08071	0.00056
616.43	0.08081	0.00044
616.48	0.0888	0.00036
616.52	0.07617	0.00042
616.56	0.07984	0.00023
616.6	0.08376	0.00039
616.64	0.0859	0.00038
616.68	0.08473	0.00042
616.72	0.08575	0.00058
616.76	0.08585	0.00036
616.8	0.08305	0.00025
616.84	0.07714	0.00032
616.88	0.08177	0.00036
616.92	0.08865	0.00025
616.95	0.08401	0.00041
617.0	0.08483	0.00042
617.04	0.08458	0.00041
617.07	0.08687	0.00042
617.12	0.08101	0.00041
617.16	0.08778	0.00027
617.19	0.08101	0.00047
617.24	0.08198	0.00025
617.28	0.07729	0.00046
617.31	0.07714	0.00046
617.36	0.07755	0.0005
617.4	0.08478	0.00046
617.43	0.08468	0.00031
617.48	0.08279	0.00048
617.52	0.08753	0.00041
617.56	0.086	0.00069
617.6	0.08671	0.00044
617.64	0.08651	0.00052
617.68	0.08585	0.00042
617.72	0.08274	0.00051
617.76	0.09074	0.00046
617.8	0.0832	0.00027
617.84	0.08198	0.00047
617.88	0.08585	0.00036
617.92	0.0859	0.00031
617.95	0.08661	0.00025
618.0	0.08941	0.00036
618.04	0.0885	0.00046
618.07	0.08967	0.00047
618.12	0.08646	0.00023
618.16	0.08778	0.00036
618.19	0.08783	0.00032
618.24	0.08748	0.0004
618.28	0.08376	0.00039
618.31	0.09236	0.00048
618.36	0.08585	0.00066
618.4	0.09231	0.00031
618.43	0.08936	0.00039
618.48	0.09354	0.00068
618.52	0.09323	0.00047
618.56	0.09328	0.00046
618.6	0.09354	0.00031
618.64	0.09242	0.00032
618.68	0.0945	0.00027
618.72	0.09791	0.00044
618.76	0.09532	0.0004
618.8	0.09562	0.0004
618.84	0.10005	0.00032
618.88	0.0885	0.00033
618.92	0.08941	0.00042
618.95	0.09909	0.00053
619.0	0.09618	0.00034
619.04	0.09328	0.00046
619.07	0.09873	0.00061
619.12	0.09898	0.00048
619.16	0.0941	0.00033
619.19	0.09221	0.00047
619.24	0.09043	0.00042
619.28	0.09038	0.00039
619.31	0.09231	0.00031
619.36	0.09043	0.00042
619.4	0.09038	0.00032
619.43	0.08865	0.00034
619.48	0.08962	0.00025
619.52	0.09226	0.0004
619.56	0.09216	0.00052
619.6	0.08941	0.00036
619.64	0.08778	0.00015
619.68	0.08773	0.0002
619.72	0.08305	0.00041
619.76	0.08671	0.00055
619.8	0.08488	0.00044
619.84	0.08401	0.00034
619.88	0.08101	0.00047
619.92	0.0917	0.00034
619.95	0.08274	0.00046
620.0	0.08305	0.00025
620.04	0.08198	0.00041
620.07	0.08763	0.00034
620.12	0.0859	0.00038
620.16	0.08183	0.00055
620.19	0.08692	0.0005
620.24	0.08498	0.00041
620.28	0.08483	0.00053
620.31	0.08865	0.00025
620.36	0.0858	0.00023
620.4	0.08768	0.00023
620.43	0.07989	0.00034
620.48	0.08799	0.00033
620.52	0.08284	0.00044
620.56	0.083	0.00061
620.6	0.08473	0.00053
620.64	0.08183	0.00071
620.68	0.0857	0.00055
620.72	0.08401	0.00065
620.76	0.08768	0.0004
620.8	0.08605	0.00025
620.84	0.0859	0.00044
620.88	0.08605	0.00034
620.92	0.08799	0.00023
620.95	0.08427	0.00039
621.0	0.08473	0.00036
621.04	0.086	0.00034
621.07	0.07999	0.00034
621.12	0.0885	0.00023
621.16	0.08839	0.00027
621.19	0.08391	0.00046
621.24	0.08824	0.00038
621.28	0.08483	0.00042
621.31	0.0831	0.00046
621.36	0.08193	0.00025
621.4	0.08488	0.00038
621.43	0.08483	0.00036
621.48	0.08783	0.00039
621.52	0.08682	0.00051
621.56	0.0914	0.0006
621.6	0.08641	0.0002
621.64	0.08595	0.00033
621.68	0.08371	0.00036
621.72	0.08478	0.00032
621.76	0.08478	0.00032
621.8	0.09053	0.00033
621.84	0.09338	0.00048
621.88	0.0887	0.0006
621.92	0.09242	0.00046
621.95	0.09618	0.00025
622.0	0.09354	0.0005
622.04	0.09338	0.00042
622.07	0.09817	0.0004
622.12	0.0972	0.00034
622.16	0.09898	0.00058
622.19	0.1027	0.0005
622.24	0.1053	0.0004
622.28	0.10474	0.00038
622.31	0.10464	0.00032
622.36	0.10474	0.00038
622.4	0.11319	0.00044
622.43	0.11324	0.00058
622.48	0.11777	0.0005
622.52	0.11528	0.00036
622.56	0.12011	0.00069
622.6	0.11813	0.00041
622.64	0.11782	0.00053
622.68	0.1196	0.00034
622.72	0.12419	0.00057
622.76	0.12734	0.00034
622.8	0.12439	0.00031
622.84	0.12179	0.00033
622.88	0.12531	0.00047
622.92	0.12551	0.00046
622.95	0.12062	0.00025
623.0	0.12062	0.00025
623.04	0.1224	0.00048
623.07	0.12256	0.0002
623.12	0.12169	0.00057
623.16	0.11594	0.00038
623.19	0.11808	0.00052
623.24	0.11803	0.00056
623.28	0.11777	0.00044
623.31	0.11421	0.00038
623.36	0.10896	0.00052
623.4	0.111	0.00025
623.43	0.10306	0.00036
623.48	0.10367	0.00036
623.52	0.10382	0.00047
623.56	0.10173	0.0004
623.6	0.10092	0.00033
623.64	0.09914	0.0005
623.68	0.09593	0.00048
623.72	0.09817	0.00023
623.76	0.09496	0.00039
623.8	0.09511	0.00046
623.84	0.09593	0.00042
623.88	0.08834	0.00039
623.92	0.09038	0.00039
623.95	0.09084	0.00036
624.0	0.08951	0.00033
624.04	0.08183	0.00044
624.07	0.08855	0.00034
624.12	0.08865	0.00025
624.16	0.08458	0.00034
624.19	0.08753	0.00041
624.24	0.08391	0.00046
624.28	0.08386	0.00038
624.31	0.08488	0.00031
624.36	0.08687	0.00036
624.4	0.08666	0.0006
624.43	0.08544	0.00046
624.48	0.08401	0.00034
624.52	0.08009	0.00038
624.56	0.08315	0.00031
624.6	0.08687	0.00053
624.64	0.09043	0.00053
624.68	0.08493	0.00046
624.72	0.08452	0.00041
624.76	0.08911	0.00052
624.8	0.08106	0.0006
624.84	0.08458	0.00041
624.88	0.08463	0.00023
624.92	0.08213	0.00038
624.95	0.0859	0.00031
625.0	0.08585	0.00027
625.04	0.08305	0.00047
625.07	0.08666	0.0004
625.12	0.0886	0.00034
625.16	0.08773	0.00031
625.19	0.08177	0.00036
625.24	0.08198	0.00047
625.28	0.08203	0.00025
625.31	0.08687	0.00048
625.36	0.08478	0.00046
625.4	0.08295	0.00034
625.43	0.08407	0.00034
625.48	0.08488	0.00038
625.52	0.08748	0.00033
625.56	0.08295	0.00052
625.6	0.0832	0.00042
625.64	0.08213	0.00031
625.68	0.08407	0.00047
625.72	0.08488	0.00038
625.76	0.08121	0.00046
625.8	0.08493	0.0004
625.84	0.08177	0.00027
625.88	0.08203	0.00041
625.92	0.08549	0.00057
625.95	0.08962	0.00052
626.0	0.0857	0.00044
626.04	0.08004	0.0004
626.07	0.08676	0.00027
626.12	0.0888	0.00042
626.16	0.0885	0.00046
626.19	0.08743	0.00031
626.24	0.08295	0.00061
626.28	0.0802	0.00039
626.31	0.08289	0.00033
626.36	0.08458	0.00047
626.4	0.08284	0.00044
626.43	0.08575	0.00048
626.48	0.08575	0.00058
626.52	0.08452	0.00025
626.56	0.08758	0.00041
626.6	0.08962	0.00041
626.64	0.08208	0.00023
626.68	0.09058	0.00047
626.72	0.08498	0.00057
626.76	0.08493	0.00056
626.8	0.08391	0.00046
626.84	0.083	0.00057
626.88	0.08483	0.00036
626.92	0.08081	0.00038
626.95	0.08773	0.00038
627.0	0.08575	0.00048
627.04	0.08844	0.00038
627.07	0.0886	0.00041
627.12	0.08193	0.00034
627.16	0.08595	0.0004
627.19	0.08488	0.00031
627.24	0.0858	0.00046
627.28	0.08763	0.00025
627.31	0.09038	0.00039
627.36	0.09058	0.00041
627.4	0.08193	0.00025
627.43	0.08478	0.00051
627.48	0.08564	0.0004
627.52	0.08773	0.00044
627.56	0.08748	0.0004
627.6	0.08783	0.00023
627.64	0.08768	0.0004
627.68	0.08794	0.00038
627.72	0.08951	0.00033
627.76	0.08763	0.00034
627.8	0.09135	0.00042
627.84	0.0886	0.00034
627.88	0.08595	0.00023
627.92	0.0915	0.00031
627.95	0.09119	0.00047
628.0	0.09405	0.00038
628.04	0.0887	0.00046
628.07	0.0917	0.00025
628.12	0.08967	0.00041
628.16	0.0859	0.00044
628.19	0.0886	0.00025
628.24	0.08834	0.00032
628.28	0.08773	0.00044
628.31	0.0944	0.00036
628.36	0.09735	0.00065
628.4	0.0914	0.00032
628.43	0.09547	0.00051
628.48	0.08585	0.00027
628.52	0.08585	0.00042
628.56	0.09425	0.00041
628.6	0.09445	0.00032
628.64	0.09522	0.00057
628.68	0.09547	0.00046
628.72	0.09562	0.0004
628.76	0.0942	0.00052
628.8	0.09735	0.00051
628.84	0.0971	0.00038
628.88	0.09527	0.00041
628.92	0.10092	0.00033
628.95	0.09909	0.00042
629.0	0.09893	0.00038
629.04	0.09348	0.00036
629.07	0.09786	0.00046
629.12	0.09786	0.00046
629.16	0.09231	0.00044
629.19	0.09547	0.00039
629.24	0.09405	0.0005
629.28	0.10092	0.00046
629.31	0.09068	0.00057
629.36	0.09527	0.00052
629.4	0.09231	0.0005
629.43	0.09211	0.00034
629.48	0.09527	0.00047
629.52	0.09252	0.00038
629.56	0.09415	0.00025
629.6	0.08931	0.00048
629.64	0.09211	0.00034
629.68	0.09074	0.00033
629.72	0.09038	0.00046
629.76	0.09043	0.00048
629.8	0.0857	0.00055
629.84	0.0886	0.00025
629.88	0.0885	0.00033
629.92	0.08407	0.00047
629.95	0.08585	0.00048
630.0	0.0858	0.00064
630.04	0.08498	0.00057
630.07	0.08646	0.0004
630.12	0.08376	0.00039
630.16	0.08585	0.00027
630.19	0.09018	0.00057
630.24	0.08676	0.00042
630.28	0.0803	0.00038
630.31	0.0803	0.00059
630.36	0.07841	0.00041
630.4	0.08483	0.00036
630.43	0.07816	0.00032
630.48	0.07908	0.0005
630.52	0.08366	0.00031
630.56	0.08381	0.00042
630.6	0.08407	0.00052
630.64	0.08488	0.00031
630.68	0.08177	0.00053
630.72	0.08096	0.00041
630.76	0.08198	0.00034
630.8	0.08401	0.00041
630.84	0.0885	0.00051
630.88	0.0887	0.00033
630.92	0.08478	0.00032
630.95	0.08605	0.00034
631.0	0.08101	0.00052
631.04	0.08101	0.00041
631.07	0.08193	0.00025
631.12	0.083	0.00034
631.16	0.07938	0.00025
631.19	0.07933	0.0004
631.24	0.08488	0.00031
631.28	0.08305	0.00041
631.31	0.08396	0.00041
631.36	0.0803	0.0002
631.4	0.07933	0.00051
631.43	0.08218	0.00042
631.48	0.08177	0.00027
631.52	0.07821	0.00036
631.56	0.08071	0.00023
631.6	0.08106	0.00046
631.64	0.08009	0.00044
631.68	0.08391	0.0004
631.72	0.08478	0.00032
631.76	0.08208	0.00033
631.8	0.08177	0.00015
631.84	0.08427	0.00032
631.88	0.08009	0.00031
631.92	0.08778	0.00027
631.95	0.09277	0.00051
632.0	0.08946	0.0005
632.04	0.0916	0.00034
632.07	0.09119	0.00034
632.12	0.08962	0.00041
632.16	0.09613	0.00033
632.19	0.0942	0.00065
632.24	0.09201	0.00038
632.28	0.09695	0.00042
632.31	0.10443	0.00041
632.36	0.10484	0.00034
632.4	0.09629	0.00025
632.43	0.0944	0.00036
632.48	0.09807	0.00027
632.52	0.10453	0.00055
632.56	0.10749	0.00034
632.6	0.10545	0.00047
632.64	0.10621	0.00027
632.68	0.10626	0.0002
632.72	0.10265	0.00036
632.76	0.1027	0.00031
632.8	0.10637	0.00041
632.84	0.10285	0.00057
632.88	0.10107	0.00046
632.92	0.11105	0.00034
632.95	0.1111	0.0004
633.0	0.0999	0.0006
633.04	0.10453	0.00031
633.07	0.10647	0.00047
633.12	0.10367	0.00042
633.16	0.10728	0.00031
633.19	0.10662	0.00048
633.24	0.10626	0.00038
633.28	0.10178	0.00052
633.31	0.10189	0.00041
633.36	0.09898	0.00042
633.4	0.09532	0.00051
633.43	0.0915	0.00044
633.48	0.09802	0.00051
633.52	0.10097	0.00031
633.56	0.10107	0.00039
633.6	0.09221	0.00034
633.64	0.09593	0.00042
633.68	0.0971	0.00055
633.72	0.08951	0.0004
633.76	0.08773	0.00038
633.8	0.09608	0.00038
633.84	0.09629	0.00025
633.88	0.08778	0.00036
633.92	0.08758	0.00047
633.95	0.08682	0.00046
634.0	0.08972	0.00033
634.04	0.08396	0.00025
634.07	0.08687	0.00042
634.12	0.08193	0.00041
634.16	0.08218	0.00036
634.19	0.0858	0.0006
634.24	0.083	0.00047
634.28	0.08284	0.0005
634.31	0.08009	0.00031
634.36	0.08295	0.00057
634.4	0.0859	0.00038
634.43	0.0857	0.00044
634.48	0.08396	0.00034
634.52	0.08004	0.0004
634.56	0.08396	0.00025
634.6	0.083	0.00041
634.64	0.08605	0.00034
634.68	0.08575	0.00048
634.72	0.08575	0.00027
634.76	0.08778	0.00015
634.8	0.07816	0.00032
634.84	0.08376	0.00046
634.88	0.08015	0.00036
634.92	0.08335	0.00031
634.95	0.08172	0.00023
635.0	0.086	0.00041
635.04	0.0859	0.00044
635.07	0.07831	0.00023
635.12	0.08213	0.0005
635.16	0.08401	0.00041
635.19	0.08284	0.00068
635.24	0.08101	0.00041
635.28	0.08101	0.00047
635.31	0.08116	0.00042
635.36	0.08458	0.00065
635.4	0.08188	0.0004
635.43	0.08096	0.00047
635.48	0.0858	0.00032
635.52	0.08386	0.00031
635.56	0.08284	0.00044
635.6	0.083	0.00041
635.64	0.08096	0.00057
635.68	0.08473	0.00042
635.72	0.08391	0.00033
635.76	0.08101	0.00047
635.8	0.08468	0.00055
635.84	0.0831	0.00065
635.88	0.08473	0.00036
635.92	0.08463	0.00046
635.95	0.08595	0.0004
636.0	0.07841	0.00025
636.04	0.08824	0.00044
636.07	0.08407	0.00025
636.12	0.08193	0.00025
636.16	0.08763	0.00034
636.19	0.08763	0.00041
636.24	0.08009	0.0002
636.28	0.08478	0.0006
636.31	0.08188	0.00033
636.36	0.08585	0.00042
636.4	0.08972	0.00076
636.43	0.08162	0.00038
636.48	0.08458	0.00025
636.52	0.08463	0.00033
636.56	0.08753	0.00034
636.6	0.08417	0.00038
636.64	0.08203	0.00034
636.68	0.08086	0.00051
636.72	0.07984	0.00056
636.76	0.08656	0.00041
636.8	0.08661	0.00025
636.84	0.07903	0.0004
636.88	0.0857	0.00038
636.92	0.08004	0.00033
636.95	0.07999	0.00025
637.0	0.08295	0.00034
637.04	0.08371	0.00036
637.07	0.08391	0.0004
637.12	0.08417	0.00031
637.16	0.07735	0.00034
637.19	0.08407	0.00047
637.24	0.08463	0.0004
637.28	0.09252	0.00038
637.31	0.08386	0.00038
637.36	0.08575	0.00027
637.4	0.08575	0.00027
637.43	0.0862	0.0002
637.48	0.0806	0.00044
637.52	0.08478	0.00046
637.56	0.08188	0.0004
637.6	0.08295	0.00061
637.64	0.08463	0.00033
637.68	0.08478	0.00032
637.72	0.08396	0.00025
637.76	0.08381	0.00027
637.8	0.08289	0.00051
637.84	0.08493	0.0004
637.88	0.08167	0.00042
637.92	0.08666	0.00056
637.95	0.08646	0.00046
638.0	0.08203	0.00052
638.04	0.0858	0.00051
638.07	0.08676	0.00048
638.12	0.07928	0.00038
638.16	0.086	0.00034
638.19	0.083	0.00047
638.24	0.08412	0.00033
638.28	0.08386	0.00038
638.31	0.08177	0.00042
638.36	0.08794	0.00038
638.4	0.08783	0.00032
638.43	0.08646	0.0004
638.48	0.08458	0.00034
638.52	0.08289	0.00051
638.56	0.083	0.00041
638.6	0.08468	0.00038
638.64	0.08025	0.00048
638.68	0.08778	0.00027
638.72	0.08371	0.00048
638.76	0.0832	0.00015
638.8	0.08753	0.00034
638.84	0.08671	0.0005
638.88	0.08656	0.00052
638.92	0.08458	0.00025
638.95	0.07994	0.00047
639.0	0.08172	0.00046
639.04	0.08687	0.00048
639.07	0.0885	0.00033
639.12	0.08463	0.00046
639.16	0.08503	0.00041
639.19	0.08468	0.00038
639.24	0.08483	0.00053
639.28	0.08391	0.00056
639.31	0.08193	0.00041
639.36	0.08376	0.00032
639.4	0.07826	0.00044
639.43	0.07775	0.00059
639.48	0.08468	0.00044
639.52	0.08473	0.00062
639.56	0.08788	0.00027
639.6	0.09043	0.00053
639.64	0.08666	0.0004
639.68	0.08193	0.00025
639.72	0.08396	0.00034
639.76	0.08422	0.00027
639.8	0.083	0.00047
639.84	0.08865	0.00041
639.88	0.08478	0.00068
639.92	0.08585	0.00036
639.95	0.08951	0.0004
640.0	0.08478	0.00051
640.04	0.08483	0.00027
640.07	0.08839	0.00036
640.12	0.08773	0.0005
640.16	0.08783	0.00046
640.19	0.08676	0.00036
640.24	0.09063	0.00057
640.28	0.08748	0.0004
640.31	0.08758	0.00025
640.36	0.08468	0.00038
