Waveleght	Intensity	Error
570.64	0.09313	0.00052
570.68	0.09135	0.00036
570.72	0.09613	0.00033
570.76	0.09506	0.0005
570.80	0.08931	0.00048
570.84	0.09216	0.00041
570.88	0.10005	0.00039
570.92	0.09995	0.00038
570.96	0.0944	0.00058
571.0	0.09343	0.00039
571.04	0.09338	0.00027
571.08	0.09496	0.00032
571.12	0.08972	0.0004
571.16	0.09425	0.00047
571.2	0.0945	0.00027
571.24	0.09613	0.00051
571.28	0.09481	0.00033
571.32	0.09685	0.00033
571.36	0.09532	0.00051
571.4	0.09318	0.00069
571.44	0.09771	0.00034
571.48	0.09807	0.00042
571.52	0.10087	0.00025
571.56	0.09623	0.00034
571.6	0.09532	0.00033
571.64	0.10275	0.0004
571.68	0.09623	0.00034
571.72	0.09537	0.00064
571.76	0.09791	0.0005
571.80	0.09797	0.00036
571.84	0.09415	0.00041
571.88	0.10092	0.00023
571.92	0.09903	0.00051
571.96	0.09903	0.00051
572.0	0.1028	0.00034
572.04	0.10464	0.00039
572.08	0.10464	0.00032
572.12	0.10657	0.00031
572.16	0.10555	0.00031
572.2	0.10764	0.00036
572.24	0.10453	0.00044
572.28	0.10453	0.00038
572.32	0.1	0.00048
572.36	0.10357	0.00036
572.4	0.10362	0.00046
572.44	0.09725	0.00041
572.48	0.09511	0.00046
572.52	0.1054	0.00034
572.56	0.10275	0.00033
572.6	0.09802	0.00046
572.64	0.09909	0.00053
572.68	0.09919	0.0006
572.72	0.09333	0.0005
572.76	0.10082	0.00047
572.80	0.09893	0.00059
572.84	0.09333	0.00055
572.88	0.09435	0.00031
572.92	0.09639	0.00038
572.96	0.09613	0.0004
573.0	0.0971	0.00038
573.04	0.09405	0.00038
573.08	0.09323	0.00047
573.12	0.09415	0.00034
573.16	0.09547	0.00051
573.2	0.08956	0.00034
573.24	0.0886	0.00034
573.28	0.0885	0.0004
573.32	0.09323	0.00034
573.36	0.09338	0.00048
573.4	0.0915	0.0005
573.44	0.0941	0.00023
573.48	0.09333	0.00044
573.52	0.09038	0.00032
573.56	0.09043	0.0007
573.6	0.08396	0.00034
573.64	0.09145	0.00053
573.68	0.09155	0.00033
573.72	0.09043	0.00027
573.76	0.09328	0.0004
573.80	0.09048	0.00031
573.84	0.09023	0.00051
573.88	0.08926	0.00038
573.92	0.08855	0.00025
573.96	0.09236	0.00036
574.0	0.09415	0.00052
574.04	0.08844	0.0005
574.08	0.09216	0.00034
574.12	0.1001	0.00036
574.16	0.10005	0.00039
574.2	0.10214	0.00015
574.24	0.09506	0.00055
574.28	0.1027	0.00044
574.32	0.09914	0.0005
574.36	0.09598	0.00039
574.4	0.10448	0.00033
574.44	0.10448	0.00033
574.48	0.10535	0.00034
574.52	0.1084	0.00057
574.56	0.1057	0.00053
574.6	0.11314	0.00033
574.64	0.10754	0.0004
574.68	0.11502	0.00047
574.72	0.1084	0.00034
574.76	0.10835	0.00023
574.80	0.11421	0.00044
574.84	0.10932	0.00038
574.88	0.11894	0.00036
574.92	0.1194	0.00051
574.96	0.11869	0.00034
575.0	0.12169	0.00034
575.04	0.12179	0.00051
575.08	0.12251	0.00015
575.12	0.11589	0.00062
575.16	0.12057	0.00033
575.2	0.12368	0.00025
575.24	0.11411	0.00034
575.28	0.12337	0.00031
575.32	0.12312	0.00023
575.36	0.12648	0.00042
575.4	0.11609	0.00025
575.44	0.11747	0.00038
575.48	0.11304	0.00025
575.52	0.11706	0.00025
575.56	0.11782	0.00042
575.6	0.11971	0.00041
575.64	0.12001	0.00038
575.68	0.11502	0.00034
575.72	0.12337	0.00044
575.76	0.11864	0.00041
575.80	0.12546	0.00042
575.84	0.13473	0.00015
575.88	0.13035	0.00047
575.92	0.13009	0.00039
575.96	0.13355	0.00044
576.0	0.12622	0.00047
576.04	0.14236	0.00058
576.08	0.12811	0.00058
576.12	0.13763	0.0005
576.16	0.14262	0.00034
576.2	0.14236	0.00042
576.24	0.14348	0.00023
576.28	0.13585	0.0004
576.32	0.14511	0.00025
576.36	0.15351	0.00039
576.4	0.15473	0.00052
576.44	0.16319	0.00051
576.48	0.15372	0.00034
576.52	0.15367	0.00046
576.56	0.17067	0.00046
576.6	0.17342	0.00036
576.64	0.17245	0.00044
576.68	0.17031	0.00046
576.72	0.17739	0.00053
576.76	0.17337	0.00032
576.80	0.17342	0.00036
576.84	0.167	0.00052
576.88	0.17327	0.0005
576.92	0.16232	0.00046
576.96	0.16039	0.00025
577.0	0.16777	0.00032
577.04	0.15484	0.00041
577.08	0.15168	0.00047
577.12	0.15173	0.00069
577.16	0.15107	0.0005
577.2	0.147	0.00031
577.24	0.14516	0.00034
577.28	0.14211	0.00041
577.32	0.13865	0.0005
577.36	0.12994	0.00033
577.4	0.13035	0.00047
577.44	0.12739	0.00051
577.48	0.12434	0.00046
577.52	0.12352	0.00058
577.56	0.12245	0.00032
577.6	0.1112	0.00036
577.64	0.11125	0.00051
577.68	0.1113	0.00042
577.72	0.10265	0.00027
577.76	0.10168	0.00038
577.80	0.09511	0.00033
577.84	0.09517	0.00025
577.88	0.09079	0.00031
577.92	0.09613	0.00046
577.96	0.0944	0.00036
578.0	0.09435	0.00031
578.04	0.09491	0.00042
578.08	0.08676	0.00036
578.12	0.09124	0.00046
578.16	0.08748	0.00046
578.2	0.08666	0.00046
578.24	0.08936	0.00046
578.28	0.08982	0.00015
578.32	0.08778	0.00015
578.36	0.09063	0.00041
578.4	0.09033	0.00042
578.44	0.09165	0.00025
578.48	0.09053	0.0004
578.52	0.09226	0.00033
578.56	0.09211	0.00034
578.6	0.09695	0.00036
578.64	0.0916	0.00025
578.68	0.09074	0.0004
578.72	0.09623	0.00034
578.76	0.08956	0.00034
578.80	0.09058	0.00052
578.84	0.0886	0.00061
578.88	0.0886	0.00041
578.92	0.09435	0.00031
578.96	0.08865	0.00076
579.0	0.09328	0.00033
579.04	0.09405	0.00059
579.08	0.09517	0.00047
579.12	0.09053	0.00056
579.16	0.09033	0.00036
579.2	0.09038	0.00046
579.24	0.0942	0.00034
579.28	0.09236	0.00036
579.32	0.09165	0.00041
579.36	0.09817	0.00033
579.4	0.0943	0.00046
579.44	0.0943	0.00033
579.48	0.0941	0.00033
579.52	0.09537	0.00038
579.56	0.09236	0.00036
579.6	0.0944	0.00042
579.64	0.0943	0.00079
579.68	0.09425	0.00041
579.72	0.09919	0.00056
579.76	0.09888	0.00033
579.80	0.09629	0.00034
579.84	0.09634	0.00033
579.88	0.09623	0.00041
579.92	0.09898	0.00062
579.96	0.10362	0.00046
580.0	0.09547	0.00023
580.04	0.09532	0.0004
580.08	0.10265	0.00053
580.12	0.1056	0.00058
580.16	0.10285	0.00047
580.2	0.10535	0.00041
580.24	0.10565	0.00051
580.28	0.1028	0.00034
580.32	0.1056	0.00048
580.36	0.1055	0.0004
580.4	0.10616	0.00039
580.44	0.10754	0.00023
580.48	0.11609	0.00041
580.52	0.11319	0.00055
580.56	0.10754	0.0004
580.6	0.11482	0.00023
580.64	0.11487	0.00048
580.68	0.11222	0.00053
580.72	0.10815	0.00036
580.76	0.11207	0.00041
580.80	0.10906	0.00056
580.84	0.11222	0.00036
580.88	0.11706	0.00034
580.92	0.11018	0.00036
580.96	0.11024	0.00032
581.0	0.11319	0.0005
581.04	0.10942	0.00034
581.08	0.10912	0.00059
581.12	0.1112	0.00027
581.16	0.11288	0.00044
581.2	0.12072	0.00034
581.24	0.12067	0.00025
581.28	0.11482	0.00046
581.32	0.12918	0.00068
581.36	0.12546	0.00058
581.4	0.13198	0.00023
581.44	0.12938	0.00041
581.48	0.12536	0.00033
581.52	0.12536	0.0004
581.56	0.13014	0.00036
581.6	0.12627	0.00047
581.64	0.13182	0.00041
581.68	0.14053	0.00052
581.72	0.14323	0.00038
581.76	0.15092	0.00058
581.80	0.14409	0.00041
581.84	0.1442	0.00046
581.88	0.14796	0.00036
581.92	0.14511	0.00034
581.96	0.16395	0.00041
582.0	0.1584	0.00041
582.04	0.16028	0.00033
582.08	0.16196	0.00041
582.12	0.16232	0.0004
582.16	0.17052	0.00047
582.2	0.16334	0.00051
582.24	0.16889	0.00044
582.28	0.17245	0.00055
582.32	0.1723	0.00036
582.36	0.16894	0.00023
582.4	0.16868	0.00038
582.44	0.16721	0.00036
582.48	0.16583	0.00055
582.52	0.15753	0.00036
582.56	0.16039	0.00047
582.6	0.15479	0.00047
582.64	0.14812	0.00025
582.68	0.14705	0.00033
582.72	0.14694	0.00036
582.76	0.14878	0.00033
582.80	0.13829	0.00027
582.84	0.13478	0.00044
582.88	0.14139	0.00044
582.92	0.12831	0.00041
582.96	0.12632	0.00041
583.0	0.12648	0.00042
583.04	0.12454	0.00036
583.08	0.12347	0.00046
583.12	0.12083	0.00038
583.16	0.11797	0.00044
583.2	0.11624	0.00038
583.24	0.10835	0.0004
583.28	0.10835	0.0004
583.32	0.10815	0.00036
583.36	0.1028	0.00034
583.4	0.1054	0.00047
583.44	0.09893	0.0005
583.48	0.09802	0.00046
583.52	0.09145	0.00042
583.56	0.0945	0.00053
583.6	0.0942	0.00041
583.64	0.09043	0.00036
583.68	0.09135	0.00053
583.72	0.09343	0.00032
583.76	0.09781	0.00041
583.80	0.08931	0.00053
583.84	0.0943	0.0004
583.88	0.09399	0.00042
583.92	0.09511	0.00046
583.96	0.09328	0.00056
584.0	0.0885	0.0004
584.04	0.09623	0.00041
584.08	0.09058	0.00025
584.12	0.09354	0.00059
584.16	0.09909	0.00053
584.2	0.09903	0.00082
584.24	0.09028	0.00044
584.28	0.09242	0.00039
584.32	0.08753	0.00025
584.36	0.09145	0.00036
584.4	0.09715	0.0004
584.44	0.09593	0.00048
584.48	0.09598	0.00032
584.52	0.0971	0.00055
584.56	0.09797	0.00027
584.6	0.0999	0.00046
584.64	0.09221	0.00052
584.68	0.09822	0.00034
584.72	0.09797	0.00027
584.76	0.09797	0.00027
584.80	0.09893	0.00059
584.84	0.09715	0.00023
584.88	0.10087	0.00041
584.92	0.10448	0.00033
584.96	0.10458	0.00036
585.0	0.1055	0.00033
585.04	0.10769	0.00046
585.08	0.10744	0.00041
585.12	0.10112	0.00036
585.16	0.10947	0.00047
585.2	0.11629	0.00036
585.24	0.11227	0.00051
585.28	0.11207	0.00034
585.32	0.11792	0.00062
585.36	0.11777	0.0005
585.4	0.11675	0.00068
585.44	0.11701	0.00033
585.48	0.11981	0.00038
585.52	0.12454	0.00027
585.56	0.12093	0.00032
585.6	0.11904	0.0004
585.64	0.11609	0.00034
585.68	0.11594	0.00031
585.72	0.11431	0.00046
585.76	0.11782	0.00053
585.80	0.11675	0.00044
585.84	0.11212	0.0004
585.88	0.1138	0.00051
585.92	0.11492	0.00031
585.96	0.11497	0.00046
586.0	0.11207	0.00034
586.04	0.11685	0.00023
586.08	0.10754	0.0004
586.12	0.11202	0.00034
586.16	0.10657	0.00038
586.2	0.10647	0.00041
586.24	0.10642	0.00025
586.28	0.10448	0.00023
586.32	0.1027	0.00059
586.36	0.10087	0.00047
586.4	0.10947	0.00047
586.44	0.10066	0.00031
586.48	0.10448	0.00033
586.52	0.10637	0.00034
586.56	0.10657	0.00038
586.6	0.10316	0.00027
586.64	0.09791	0.00031
586.68	0.10453	0.00038
586.72	0.09832	0.00025
586.76	0.09898	0.00042
586.80	0.10464	0.00032
586.84	0.10464	0.00039
586.88	0.1084	0.00025
586.92	0.10469	0.00036
586.96	0.11482	0.00039
587.0	0.11757	0.00025
587.04	0.12337	0.00044
587.08	0.12337	0.00044
587.12	0.12358	0.0005
587.16	0.12088	0.00036
587.2	0.12536	0.00046
587.24	0.13401	0.0004
587.28	0.13753	0.00041
587.32	0.13182	0.00034
587.36	0.14022	0.00036
587.4	0.14216	0.00051
587.44	0.14211	0.00041
587.48	0.14206	0.00052
587.52	0.1526	0.0005
587.56	0.14776	0.0004
587.6	0.1471	0.00034
587.64	0.1554	0.00046
587.68	0.15641	0.0006
587.72	0.15652	0.00036
587.76	0.15285	0.00023
587.80	0.16512	0.00044
587.84	0.15265	0.00023
587.88	0.16049	0.00033
587.92	0.15738	0.00041
587.96	0.15173	0.00057
588.0	0.14883	0.0005
588.04	0.14883	0.00038
588.08	0.1471	0.00041
588.12	0.15173	0.00052
588.16	0.14435	0.00051
588.2	0.14226	0.00042
588.24	0.13401	0.00046
588.28	0.13467	0.00039
588.32	0.13462	0.00053
588.36	0.13488	0.00041
588.4	0.12989	0.00052
588.44	0.13014	0.00027
588.48	0.12169	0.00041
588.52	0.11696	0.00038
588.56	0.11629	0.00027
588.6	0.11599	0.00046
588.64	0.12072	0.00052
588.68	0.11039	0.00033
588.72	0.1109	0.0006
588.76	0.10927	0.00048
588.80	0.10728	0.00044
588.84	0.10387	0.00041
588.88	0.09893	0.00031
588.92	0.09888	0.00056
588.96	0.09511	0.00051
589.0	0.09537	0.00044
589.04	0.09791	0.0002
589.08	0.0914	0.00051
589.12	0.08946	0.00044
589.16	0.09537	0.00044
589.2	0.09511	0.00046
589.24	0.1001	0.00036
589.28	0.09517	0.00047
589.32	0.09155	0.0004
589.36	0.08671	0.00044
589.4	0.09506	0.0005
589.44	0.0971	0.00044
589.48	0.097	0.00032
589.52	0.09705	0.00042
589.56	0.0943	0.00046
589.6	0.10183	0.00047
589.64	0.10443	0.00034
589.68	0.10194	0.00023
589.72	0.10377	0.00051
589.76	0.10474	0.00038
589.80	0.10464	0.00023
589.84	0.11039	0.00046
589.88	0.11411	0.00034
589.92	0.11013	0.00038
589.96	0.11125	0.00039
590.0	0.11772	0.00033
590.04	0.11976	0.00051
590.08	0.11996	0.00042
590.12	0.11884	0.00058
590.16	0.11976	0.0006
590.2	0.12429	0.00041
590.24	0.12989	0.00047
590.28	0.13676	0.00027
590.32	0.13238	0.00041
590.36	0.12826	0.00047
590.4	0.12821	0.00051
590.44	0.13452	0.00046
590.48	0.13661	0.00038
590.52	0.14053	0.00025
590.56	0.15092	0.00042
590.6	0.14969	0.00047
590.64	0.14593	0.00036
590.68	0.14608	0.00052
590.72	0.14725	0.0004
590.76	0.13686	0.00033
590.80	0.14145	0.00033
590.84	0.14404	0.00034
590.88	0.14348	0.0006
590.92	0.14414	0.00061
590.96	0.14399	0.00033
591.0	0.13284	0.00025
591.04	0.14145	0.0004
591.08	0.14145	0.00023
591.12	0.13656	0.00056
591.16	0.13473	0.00015
591.2	0.1388	0.00048
591.24	0.14608	0.00034
591.28	0.14618	0.00034
591.32	0.13019	0.0005
591.36	0.14262	0.00052
591.4	0.12912	0.00027
591.44	0.12994	0.00046
591.48	0.12831	0.00047
591.52	0.12739	0.00046
591.56	0.12709	0.00036
591.6	0.11981	0.00031
591.64	0.1224	0.00027
591.68	0.11701	0.00033
591.72	0.12169	0.00034
591.76	0.1196	0.00034
591.80	0.11629	0.00027
591.84	0.11782	0.00048
591.88	0.11792	0.00053
591.92	0.114	0.00052
591.96	0.11472	0.00038
592.0	0.10927	0.00042
592.04	0.1083	0.00031
592.08	0.1084	0.00025
592.12	0.1054	0.00047
592.16	0.10576	0.00038
592.2	0.1056	0.00053
592.24	0.10372	0.00064
592.28	0.10372	0.00038
592.32	0.09898	0.00062
592.36	0.10367	0.00036
592.4	0.10168	0.00031
592.44	0.10173	0.00046
592.48	0.1052	0.00036
592.52	0.10448	0.0004
592.56	0.09695	0.00042
592.6	0.10275	0.00051
592.64	0.10285	0.00025
592.68	0.10168	0.00038
592.72	0.09394	0.00051
592.76	0.0942	0.00034
592.80	0.10005	0.00046
592.84	0.09354	0.00038
592.88	0.09878	0.00041
592.92	0.09323	0.00041
592.96	0.09608	0.00038
593.0	0.10255	0.00027
593.04	0.10255	0.00027
593.08	0.097	0.00046
593.12	0.09236	0.00053
593.16	0.09328	0.0004
593.2	0.09888	0.00033
593.24	0.09705	0.00058
593.28	0.09909	0.00058
593.32	0.09903	0.00051
593.36	0.10352	0.00064
593.4	0.09812	0.00038
593.44	0.09639	0.00038
593.48	0.09695	0.00042
593.52	0.09608	0.00038
593.56	0.09323	0.00057
593.6	0.09608	0.00055
593.64	0.09603	0.00027
593.68	0.09776	0.00034
593.72	0.1054	0.00052
593.76	0.09705	0.00048
593.80	0.10352	0.0005
593.84	0.1028	0.00047
593.88	0.10535	0.00034
593.92	0.10555	0.00055
593.96	0.09873	0.00047
594.0	0.09618	0.00025
594.04	0.10367	0.00042
594.08	0.09679	0.00025
594.12	0.09878	0.00052
594.16	0.10066	0.00038
594.2	0.09797	0.00053
594.24	0.09761	0.00044
594.28	0.09802	0.00039
594.32	0.10107	0.00023
594.36	0.09705	0.00042
594.4	0.10367	0.00042
594.44	0.10183	0.00041
594.48	0.10173	0.00023
594.52	0.10183	0.00052
594.56	0.10362	0.00039
594.6	0.1027	0.0002
594.64	0.09995	0.00064
594.68	0.09965	0.00031
594.72	0.1027	0.00031
594.76	0.0997	0.0004
594.80	0.10015	0.0005
594.84	0.0973	0.00052
594.88	0.09878	0.00047
594.92	0.09741	0.00038
594.96	0.10092	0.00033
595.0	0.09791	0.00038
595.04	0.10082	0.00025
595.08	0.09496	0.00046
595.12	0.09522	0.00052
595.16	0.09522	0.00041
595.2	0.09695	0.00027
595.24	0.09542	0.00042
595.28	0.08967	0.00047
595.32	0.0913	0.00038
595.36	0.09802	0.00023
595.4	0.09797	0.00042
595.44	0.09639	0.00031
595.48	0.09425	0.00047
595.52	0.09145	0.00042
595.56	0.0971	0.00031
595.6	0.09298	0.00042
595.64	0.09231	0.00044
595.68	0.09242	0.00039
595.72	0.0914	0.00046
595.76	0.09242	0.00032
595.80	0.09903	0.00051
595.84	0.09415	0.00052
595.88	0.09914	0.00038
595.92	0.09527	0.00041
595.96	0.09985	0.00047
596.0	0.09975	0.00034
596.04	0.09822	0.00047
596.08	0.09496	0.00039
596.12	0.10448	0.00033
596.16	0.09888	0.0006
596.2	0.0999	0.00046
596.24	0.10005	0.00051
596.28	0.10015	0.00038
596.32	0.10285	0.00057
596.36	0.1056	0.00042
596.4	0.1056	0.00062
596.44	0.10285	0.00041
596.48	0.10295	0.00033
596.52	0.10168	0.0005
596.56	0.10392	0.00034
596.6	0.10362	0.00039
596.64	0.10906	0.0004
596.68	0.1111	0.0006
596.72	0.10637	0.00034
596.76	0.11227	0.00032
596.80	0.10555	0.00055
596.84	0.10744	0.00041
596.88	0.10738	0.00047
596.92	0.1113	0.00027
596.96	0.11487	0.00027
597.0	0.11115	0.00031
597.04	0.11772	0.00051
597.08	0.11125	0.00032
597.12	0.11971	0.00047
597.16	0.11981	0.00059
597.2	0.11482	0.00051
597.24	0.12373	0.00057
597.28	0.12139	0.00027
597.32	0.11202	0.00034
597.36	0.11411	0.00041
597.4	0.11879	0.00031
597.44	0.12037	0.00042
597.48	0.12077	0.00033
597.52	0.12536	0.00023
597.56	0.12159	0.00046
597.6	0.12169	0.00025
597.64	0.12923	0.00065
597.68	0.12052	0.00055
597.72	0.1251	0.00044
597.76	0.1252	0.00065
597.80	0.11772	0.00046
597.84	0.11853	0.00033
597.88	0.12159	0.00033
597.92	0.12444	0.00042
597.96	0.11787	0.00056
598.0	0.12256	0.00044
598.04	0.12256	0.00038
598.08	0.11696	0.00031
598.12	0.11869	0.00025
598.16	0.10912	0.00044
598.2	0.11298	0.00041
598.24	0.11599	0.00046
598.28	0.11405	0.00034
598.32	0.10957	0.00051
598.36	0.10901	0.00047
598.4	0.11405	0.00025
598.44	0.1168	0.00048
598.48	0.11202	0.00041
598.52	0.11319	0.00059
598.56	0.11421	0.0002
598.6	0.11054	0.00025
598.64	0.11039	0.00056
598.68	0.10718	0.0006
598.72	0.10912	0.00044
598.76	0.10662	0.00053
598.80	0.11298	0.00047
598.84	0.11395	0.00046
598.88	0.11767	0.00041
598.92	0.11298	0.00034
598.96	0.11304	0.00041
599.0	0.11212	0.00023
599.04	0.11848	0.00031
599.08	0.11665	0.00034
599.12	0.11309	0.00041
599.16	0.11288	0.00038
599.2	0.12373	0.00041
599.24	0.12332	0.00056
599.28	0.11024	0.00046
599.32	0.1136	0.00047
599.36	0.11008	0.00033
599.4	0.11421	0.0005
599.44	0.11589	0.00042
599.48	0.10738	0.00052
599.52	0.10759	0.00038
599.56	0.11222	0.00042
599.6	0.111	0.00047
599.64	0.1054	0.00041
599.68	0.1055	0.0004
599.72	0.1028	0.00034
599.76	0.10835	0.00033
599.80	0.10183	0.00041
599.84	0.10158	0.00039
599.88	0.10265	0.00036
599.92	0.10178	0.00052
599.96	0.10387	0.00034
600.0	0.10362	0.00051
600.04	0.10285	0.00047
600.08	0.10026	0.00034
600.12	0.09995	0.00044
600.16	0.09822	0.00034
600.2	0.09837	0.0004
600.24	0.10189	0.00047
600.28	0.09211	0.00041
600.32	0.10087	0.00025
600.36	0.0971	0.0005
600.4	0.0971	0.00038
600.44	0.09725	0.00041
600.48	0.09511	0.00046
600.52	0.09527	0.00041
600.56	0.09542	0.00036
600.6	0.10005	0.00032
600.64	0.09695	0.00036
600.68	0.09924	0.00047
600.72	0.09909	0.00048
600.76	0.09797	0.00042
600.80	0.097	0.00032
600.84	0.0969	0.00044
600.88	0.10275	0.0004
600.92	0.09812	0.00031
600.96	0.10189	0.00057
601.0	0.10173	0.00056
601.04	0.09338	0.0007
601.08	0.09532	0.00033
601.12	0.09909	0.00048
601.16	0.09715	0.0004
601.2	0.09068	0.00034
601.24	0.09618	0.00057
601.28	0.0915	0.0005
601.32	0.09155	0.00046
601.36	0.09145	0.00042
601.4	0.09135	0.00042
601.44	0.09303	0.00064
601.48	0.0915	0.00038
601.52	0.09313	0.00041
601.56	0.0944	0.00015
601.6	0.09399	0.00027
601.64	0.09522	0.00047
601.68	0.08758	0.00041
601.72	0.08946	0.0005
601.76	0.09231	0.00038
601.80	0.09221	0.00034
601.84	0.09145	0.00048
601.88	0.0914	0.00039
601.92	0.09303	0.00031
601.96	0.08834	0.00039
602.0	0.09797	0.00015
602.04	0.09211	0.00034
602.08	0.09303	0.00044
602.12	0.09231	0.00044
602.16	0.0913	0.00044
602.2	0.09135	0.00042
602.24	0.09313	0.00041
602.28	0.09313	0.00034
602.32	0.09608	0.00044
602.36	0.09797	0.00027
602.4	0.09033	0.00027
602.44	0.08839	0.00042
602.48	0.08839	0.00053
602.52	0.09074	0.0006
602.56	0.09613	0.00033
602.6	0.0915	0.00031
602.64	0.0942	0.00034
602.68	0.09165	0.00034
602.72	0.09802	0.00051
602.76	0.09522	0.00052
602.80	0.09517	0.00041
602.84	0.09679	0.00047
602.88	0.09298	0.00048
602.92	0.09532	0.00056
602.96	0.0969	0.00044
603.0	0.09517	0.00047
603.04	0.09323	0.00047
603.08	0.09313	0.00047
603.12	0.09338	0.00048
603.16	0.09333	0.00044
603.2	0.0998	0.00057
603.24	0.09435	0.0005
603.28	0.09812	0.00038
603.32	0.0943	0.00046
603.36	0.09415	0.00025
603.4	0.09618	0.00034
603.44	0.09598	0.00039
603.48	0.09608	0.0005
603.52	0.09603	0.00036
603.56	0.09313	0.00047
603.6	0.09603	0.00042
603.64	0.10341	0.00047
603.68	0.10336	0.00034
603.72	0.09985	0.00034
603.76	0.09231	0.00038
603.80	0.09318	0.00034
603.84	0.09797	0.00042
603.88	0.09715	0.0004
603.92	0.09308	0.00056
603.96	0.09298	0.00036
604.0	0.09511	0.00065
604.04	0.09338	0.00036
604.08	0.09725	0.00052
604.12	0.09328	0.00051
604.16	0.09557	0.0005
604.2	0.10092	0.00033
604.24	0.10056	0.00032
604.28	0.09725	0.00047
604.32	0.09685	0.00023
604.36	0.10178	0.00034
604.4	0.09527	0.00047
604.44	0.09511	0.0004
604.48	0.09786	0.00046
604.52	0.09405	0.00031
604.56	0.09445	0.00032
604.6	0.10071	0.00033
604.64	0.09236	0.00042
604.68	0.09695	0.00036
604.72	0.1001	0.00042
604.76	0.09898	0.00042
604.80	0.10173	0.0004
604.84	0.10194	0.00046
604.88	0.10087	0.00034
604.92	0.10453	0.00031
604.96	0.0998	0.00025
605.0	0.10071	0.00046
605.04	0.09909	0.00027
605.08	0.1027	0.00059
605.12	0.09914	0.00055
605.16	0.09903	0.00032
605.2	0.10474	0.0002
605.24	0.10102	0.00036
605.28	0.0943	0.00033
605.32	0.09506	0.00044
605.36	0.10189	0.00041
605.4	0.10071	0.00033
605.44	0.10097	0.00038
605.48	0.0942	0.00057
605.52	0.09165	0.00025
605.56	0.09781	0.00047
605.6	0.10082	0.00025
605.64	0.0942	0.00041
605.68	0.09893	0.00044
605.72	0.09909	0.00036
605.76	0.09445	0.00032
605.80	0.09995	0.00038
605.84	0.09522	0.00034
605.88	0.09883	0.00047
605.92	0.09532	0.00046
605.96	0.09898	0.00036
606.0	0.09343	0.00039
606.04	0.09338	0.00036
606.08	0.09608	0.00044
606.12	0.09501	0.00027
606.16	0.09511	0.0004
606.2	0.08946	0.00055
606.24	0.09817	0.00033
606.28	0.09511	0.00051
606.32	0.09517	0.00052
606.36	0.09226	0.00046
606.4	0.09023	0.0004
606.44	0.08844	0.00044
606.48	0.09038	0.00032
606.52	0.08946	0.0005
606.56	0.09328	0.0004
606.6	0.09328	0.0004
606.64	0.09598	0.00032
606.68	0.09807	0.00036
606.72	0.09236	0.00036
606.76	0.09613	0.00046
606.80	0.0943	0.00046
606.84	0.09618	0.00034
606.88	0.09537	0.0005
606.92	0.09506	0.00044
606.96	0.0943	0.00046
607.0	0.0972	0.00041
607.04	0.09807	0.00053
607.08	0.09598	0.00056
607.12	0.0973	0.00052
607.16	0.10087	0.00041
607.2	0.10097	0.0005
607.24	0.09593	0.00058
607.28	0.09914	0.00064
607.32	0.09807	0.00027
607.36	0.1001	0.00036
607.4	0.10245	0.00079
607.44	0.10667	0.00039
607.48	0.10626	0.0002
607.52	0.10672	0.00027
607.56	0.0973	0.00047
607.6	0.10285	0.00041
607.64	0.10744	0.00061
607.68	0.10637	0.00041
607.72	0.10565	0.00051
607.76	0.10642	0.00052
607.80	0.10632	0.00023
607.84	0.10912	0.00038
607.88	0.11971	0.00034
607.92	0.11512	0.00057
607.96	0.11528	0.00066
608.0	0.12368	0.00034
608.04	0.1168	0.00048
608.08	0.11696	0.00038
608.12	0.11594	0.0005
608.16	0.1167	0.0004
608.2	0.11986	0.00027
608.24	0.11772	0.00051
608.28	0.11573	0.00055
608.32	0.11971	0.00025
608.36	0.11696	0.00044
608.4	0.11701	0.00033
608.44	0.11675	0.0005
608.48	0.12653	0.00039
608.52	0.11497	0.0004
608.56	0.11594	0.00038
608.6	0.11288	0.00044
608.64	0.11293	0.0004
608.68	0.11329	0.00023
608.72	0.11202	0.00025
608.76	0.11242	0.0004
608.80	0.10927	0.00036
608.84	0.10759	0.00038
608.88	0.111	0.00041
608.92	0.10484	0.00034
608.96	0.10469	0.00053
609.0	0.10372	0.00038
609.04	0.10189	0.00041
609.08	0.10357	0.00048
609.12	0.0999	0.00023
609.16	0.09807	0.00066
609.2	0.10194	0.00033
609.24	0.09995	0.00031
609.28	0.10021	0.00051
609.32	0.09445	0.00046
609.36	0.09802	1.38778e-17
609.4	0.1	0.00042
609.44	0.09425	0.00052
609.48	0.09695	0.00053
609.52	0.10082	0.00034
609.56	0.10087	0.00034
609.6	0.09909	0.00027
609.64	0.09715	0.00033
609.68	0.09517	0.00041
609.72	0.10504	0.00044
609.76	0.10178	0.00052
609.80	0.0999	0.00046
609.84	0.09629	0.00034
609.88	0.09618	0.00034
609.92	0.09802	0.00032
609.96	0.09623	0.00041
610.0	0.10097	0.00044
610.04	0.09812	0.00038
610.08	0.09903	0.00046
610.12	0.09216	0.00025
610.16	0.09236	0.00042
610.2	0.09802	0.00039
610.24	0.09776	0.00057
610.28	0.09898	0.00036
610.32	0.10204	0.00053
610.36	0.09598	0.00046
610.4	0.09501	0.00042
610.44	0.09532	0.00056
610.48	0.09618	0.00025
610.52	0.09878	0.00034
610.56	0.09608	0.0002
610.6	0.09618	0.00047
610.64	0.09313	0.00047
610.68	0.09623	0.00034
610.72	0.08773	0.00031
610.76	0.08763	0.00025
610.80	0.09145	0.00042
610.84	0.09226	0.00033
610.88	0.09135	0.00027
610.92	0.09236	0.00027
610.96	0.0943	0.00023
611.0	0.09715	0.0004
611.04	0.097	0.00046
611.08	0.09542	0.00053
611.12	0.09674	0.00041
611.16	0.09603	0.00036
611.2	0.09695	0.00027
611.24	0.0969	0.00038
611.28	0.10061	0.00027
611.32	0.09588	0.00031
611.36	0.09608	0.00055
611.4	0.10204	0.00036
611.44	0.09786	0.00033
611.48	0.10362	0.00032
611.52	0.10835	0.00033
611.56	0.10204	0.00027
611.6	0.1054	0.00047
611.64	0.10565	0.00046
611.68	0.09715	0.00033
611.72	0.10285	0.00034
611.76	0.10051	0.00027
611.80	0.10453	0.00038
611.84	0.10061	0.00027
611.88	0.10387	0.00034
611.92	0.10382	0.00041
611.96	0.10265	0.00015
612.0	0.10565	0.00039
612.04	0.10458	0.00015
612.08	0.10469	0.00036
612.12	0.10372	0.00044
612.16	0.10382	0.00047
612.2	0.1054	0.00041
612.24	0.10555	0.00038
612.28	0.11298	0.00041
612.32	0.10749	0.00041
612.36	0.10525	0.0005
612.4	0.10484	0.00052
612.44	0.10087	0.00034
612.48	0.10362	0.00056
612.52	0.10382	0.00052
612.56	0.09909	0.00058
612.6	0.09425	0.00047
612.64	0.09985	0.00025
612.68	0.10346	0.00023
612.72	0.10275	0.0004
612.76	0.09883	0.00041
612.80	0.09903	0.00051
612.84	0.09878	0.00052
612.88	0.10469	0.00048
612.92	0.1001	0.00042
612.96	0.09313	0.00041
613.0	0.09613	0.0004
613.04	0.09822	0.00047
613.08	0.09068	0.00047
613.12	0.09043	0.00036
613.16	0.08911	0.00041
613.2	0.09308	0.0004
613.24	0.09389	0.00042
613.28	0.09623	0.00041
613.32	0.09965	0.00038
613.36	0.09598	0.00032
613.4	0.09588	0.00044
613.44	0.09435	0.0002
613.48	0.09812	0.00044
613.52	0.09735	0.0004
613.56	0.09995	0.00038
613.6	0.0915	0.00044
613.64	0.09608	0.00038
613.68	0.0942	0.00047
613.72	0.0942	0.00034
613.76	0.09705	0.00036
613.80	0.09135	0.00027
613.84	0.09506	0.0005
613.88	0.09593	0.00042
613.92	0.09802	0.00056
613.96	0.09231	0.00038
614.0	0.09211	0.00034
614.04	0.10061	0.00036
614.08	0.09186	0.00027
614.12	0.09338	0.00036
614.16	0.09883	0.00041
614.2	0.09425	0.00052
614.24	0.09975	0.00057
614.28	0.09975	0.00057
614.32	0.10092	0.00056
614.36	0.09685	0.00033
614.4	0.09893	0.00044
614.44	0.09623	0.00034
614.48	0.09328	0.00051
614.52	0.0917	0.00025
614.56	0.10178	0.00041
614.6	0.10189	0.00047
614.64	0.09425	0.00025
614.68	0.09221	0.00034
614.72	0.09664	0.00023
614.76	0.09817	0.00033
614.80	0.09593	0.00027
614.84	0.09909	0.00036
614.88	0.09914	0.00044
614.92	0.09226	0.0004
614.96	0.0973	0.00047
615.0	0.0973	0.00041
615.04	0.09338	0.00042
615.08	0.10443	0.00041
615.12	0.09506	0.0005
615.16	0.09552	0.00048
615.2	0.10005	0.00051
615.24	0.1028	0.00034
615.28	0.09603	0.00015
615.32	0.09506	0.00038
615.36	0.09797	0.00015
615.4	0.09695	0.00027
615.44	0.09338	0.00048
615.48	0.09333	0.00038
615.52	0.09501	0.00036
615.56	0.09537	0.00031
615.6	0.09522	0.00047
615.64	0.09802	0.00056
615.68	0.09343	0.00046
615.72	0.09114	0.00052
615.76	0.0914	0.00039
615.80	0.09603	0.00042
615.84	0.09517	0.00061
615.88	0.09613	0.00046
615.92	0.09216	0.00047
615.96	0.09063	0.00034
616.0	0.09909	0.00053
616.04	0.0971	0.00044
616.08	0.0971	0.00031
616.12	0.0942	0.00025
616.16	0.09629	0.00041
616.2	0.09313	0.00047
616.24	0.09425	0.00025
616.28	0.09247	0.00036
616.32	0.09226	0.0004
616.36	0.09242	0.00039
616.4	0.09695	0.00036
616.44	0.08941	0.00042
616.48	0.09522	0.00041
616.52	0.0973	0.00034
616.56	0.09338	0.00053
616.6	0.09522	0.00041
616.64	0.09527	0.00052
616.68	0.09435	0.00059
616.72	0.09435	0.00038
616.76	0.09812	0.0002
616.80	0.09216	0.00041
616.84	0.10066	0.00031
616.88	0.10071	0.00033
616.92	0.09629	0.00025
616.96	0.09613	0.0006
617.0	0.09959	0.00053
617.04	0.09511	0.00033
617.08	0.0914	0.00032
617.12	0.09333	0.00038
617.16	0.09629	0.00047
617.2	0.08768	0.00023
617.24	0.08748	0.0004
617.28	0.09868	0.00023
617.32	0.09634	0.00033
617.36	0.10367	0.00053
617.4	0.09802	0.0006
617.44	0.09898	0.00027
617.48	0.10199	0.0002
617.52	0.10143	0.0006
617.56	0.09634	0.00033
617.6	0.09802	0.00051
617.64	0.09822	0.00034
617.68	0.0914	0.00039
617.72	0.09812	0.00038
617.76	0.10087	0.00034
617.80	0.10453	0.00038
617.84	0.10453	0.00038
617.88	0.10372	0.00044
617.92	0.1053	0.0004
617.96	0.10382	0.00047
618.0	0.10998	0.00061
618.04	0.10183	0.00025
618.08	0.10637	0.00041
618.12	0.10626	0.00031
618.16	0.10555	0.00059
618.2	0.11976	0.00033
618.24	0.12072	0.00041
618.28	0.12638	0.00051
618.32	0.1196	0.00052
618.36	0.12785	0.00057
618.4	0.12526	0.00047
618.44	0.12541	0.00038
618.48	0.13101	0.00038
618.52	0.13854	0.00052
618.56	0.14598	0.00038
618.6	0.14119	0.00044
618.64	0.13666	0.00015
618.68	0.15652	0.00036
618.72	0.15652	0.00042
618.76	0.15479	0.00034
618.80	0.16054	0.0005
618.84	0.16415	0.00042
618.88	0.16191	0.00041
618.92	0.16135	0.00047
618.96	0.15682	0.00025
619.0	0.15626	0.00047
619.04	0.15555	0.00076
619.08	0.15937	0.00041
619.12	0.16986	0.00042
619.16	0.16517	0.00036
619.2	0.1641	0.00038
619.24	0.16212	0.00027
619.28	0.1642	0.00039
619.32	0.16405	0.00046
619.36	0.15555	0.00039
619.4	0.14812	0.00034
619.44	0.14603	0.0004
619.48	0.13778	0.00042
619.52	0.14414	0.00034
619.56	0.13305	0.00031
619.6	0.13289	0.00034
619.64	0.13106	0.00027
619.68	0.13035	0.00025
619.72	0.12867	0.00044
619.76	0.11884	0.00048
619.80	0.1111	0.00046
619.84	0.10927	0.00036
619.88	0.0998	0.00052
619.92	0.09985	0.00034
619.96	0.10555	0.00055
620.0	0.1028	0.00041
620.04	0.10362	0.00039
620.08	0.09608	0.00059
620.12	0.09995	0.00031
620.16	0.09629	0.00041
620.2	0.09639	0.00038
620.24	0.10087	0.00034
620.28	0.09618	0.00025
620.32	0.09679	0.00025
620.36	0.10749	0.00057
620.4	0.09491	0.00027
620.44	0.10092	0.00023
620.48	0.10087	0.00025
620.52	0.10005	0.00023
620.56	0.09608	0.00038
620.6	0.10173	0.00046
620.64	0.1029	0.00041
620.68	0.097	0.00046
620.72	0.09791	0.00044
620.76	0.09909	0.00042
620.80	0.09878	0.00047
620.84	0.1055	0.00056
620.88	0.10438	0.00025
620.92	0.10173	0.0004
620.96	0.10158	0.00046
621.0	0.0999	0.0004
621.04	0.1056	0.00036
621.08	0.10509	0.00042
621.12	0.1	0.00027
621.16	0.10209	0.00039
621.2	0.10112	0.00048
621.24	0.10362	0.00046
621.28	0.10576	0.00031
621.32	0.10097	0.0002
621.36	0.10077	0.00047
621.4	0.1056	0.00036
621.44	0.10372	0.00044
621.48	0.0999	0.0004
621.52	0.10153	0.00053
621.56	0.10535	0.00034
621.6	0.11029	0.00036
621.64	0.11298	0.00047
621.68	0.11319	0.00031
621.72	0.11064	0.0005
621.76	0.10856	0.00046
621.80	0.10922	0.00039
621.84	0.10194	0.00033
621.88	0.11029	0.00042
621.92	0.11008	0.00033
621.96	0.11003	0.00052
622.0	0.11024	0.00039
622.04	0.11008	0.0004
622.08	0.11482	0.00051
622.12	0.12133	0.00038
622.16	0.11965	0.00034
622.2	0.12083	0.00038
622.24	0.1192	0.00057
622.28	0.11853	0.00033
622.32	0.11869	0.00025
622.36	0.12744	0.00055
622.4	0.11879	0.0005
622.44	0.12149	0.00036
622.48	0.13269	0.00027
622.52	0.13493	0.00034
622.56	0.13478	0.00038
622.6	0.14348	0.00046
622.64	0.13753	0.00025
622.68	0.15102	0.00042
622.72	0.15188	0.0005
622.76	0.15367	0.0006
622.80	0.15952	0.0002
622.84	0.15952	0.00031
622.88	0.15647	0.00044
622.92	0.15662	0.00036
622.96	0.1583	0.00025
623.0	0.16314	0.00036
623.04	0.1527	0.00034
623.08	0.1638	0.00044
623.12	0.15937	0.00025
623.16	0.15957	0.00027
623.2	0.16578	0.00036
623.24	0.16863	0.00056
623.28	0.15193	0.00042
623.32	0.14974	0.00041
623.36	0.15224	0.00047
623.4	0.147	0.00031
623.44	0.14715	0.00034
623.48	0.14328	0.00027
623.52	0.14964	0.00041
623.56	0.13763	0.0002
623.6	0.13483	0.00023
623.64	0.13116	0.00036
623.68	0.12816	0.00055
623.72	0.12816	0.00044
623.76	0.12332	0.0004
623.80	0.11212	0.0004
623.84	0.11772	0.00046
623.88	0.11405	0.00041
623.92	0.11309	0.00047
623.96	0.10962	0.00031
624.0	0.11589	0.00036
624.04	0.11599	0.0004
624.08	0.10754	0.00046
624.12	0.10275	0.00033
624.16	0.10341	0.00034
624.2	0.10453	0.0005
624.24	0.10189	0.00041
624.28	0.10102	0.00048
624.32	0.10071	0.00033
624.36	0.10071	0.00051
624.4	0.09705	0.00036
624.44	0.09807	0.00042
624.48	0.10178	0.00052
624.52	0.09878	0.00041
624.56	0.10194	0.00046
624.6	0.09812	0.0002
624.64	0.09791	0.00038
624.68	0.10082	0.00047
624.72	0.1	0.00027
624.76	0.10071	0.00046
624.80	0.0999	0.00056
624.84	0.09715	0.0004
624.88	0.10377	0.00056
624.92	0.10346	0.00033
624.96	0.09995	0.00031
625.0	0.09914	0.00059
625.04	0.10173	0.0004
625.08	0.10107	0.00039
625.12	0.09517	0.00034
625.16	0.0973	0.00025
625.2	0.097	0.00032
625.24	0.09909	0.00058
625.28	0.09328	0.00065
625.32	0.09333	0.0005
625.36	0.09995	0.00055
625.4	0.0972	0.00047
625.44	0.09797	0.00027
625.48	0.0969	0.00059
625.52	0.0973	0.00034
625.56	0.09517	0.00034
625.6	0.10102	0.00027
625.64	0.09135	0.00036
625.68	0.10005	0.00032
625.72	0.09919	0.00046
625.76	0.09898	0.00058
625.80	0.09919	0.00046
625.84	0.09893	0.00038
625.88	0.09491	0.00042
625.92	0.10097	0.0002
625.96	0.097	0.00046
626.0	0.09506	0.00038
626.04	0.09883	0.00052
626.08	0.09888	0.0004
626.12	0.09802	0.00032
626.16	0.09802	0.00023
626.2	0.09623	0.00034
626.24	0.0941	0.00033
626.28	0.09898	0.00036
626.32	0.09257	0.00046
626.36	0.09211	0.00034
626.4	0.09206	0.00033
626.44	0.10092	0.0006
626.48	0.0942	0.00034
626.52	0.0972	0.00052
626.56	0.09995	0.00044
626.6	0.09603	0.00027
626.64	0.09318	0.00047
626.68	0.09313	0.00057
626.72	0.09501	0.00027
626.76	0.10372	0.00038
626.80	0.09812	0.00055
626.84	0.1001	0.00027
626.88	0.09644	0.00027
626.92	0.09776	0.00041
626.96	0.09415	0.00047
627.0	0.09405	0.00038
627.04	0.09323	0.00065
627.08	0.09389	0.00036
627.12	0.10377	0.00023
627.16	0.10168	0.00044
627.2	0.0915	0.0002
627.24	0.10087	0.00025
627.28	0.10087	0.00041
627.32	0.09903	0.00046
627.36	0.09705	0.00036
627.4	0.09903	0.00039
627.44	0.09939	0.00033
627.48	0.09807	0.00036
627.52	0.09995	0.00044
627.56	0.1001	0.00036
627.6	0.10183	0.00073
627.64	0.10443	0.00041
627.68	0.09924	0.00034
627.72	0.09903	0.00051
627.76	0.10178	0.00047
627.80	0.10071	0.00033
627.84	0.10097	0.0002
627.88	0.10077	0.00041
627.92	0.09812	0.0002
627.96	0.10102	0.00027
628.0	0.09919	0.0004
628.04	0.09807	0.00027
628.08	0.10637	0.00052
628.12	0.10586	0.00041
628.16	0.10545	0.00057
628.2	0.10733	0.00033
628.24	0.10581	0.00033
628.28	0.10438	0.00025
628.32	0.10657	0.00031
628.36	0.1054	0.00034
628.4	0.1084	0.00025
628.44	0.10922	0.0006
628.48	0.10922	0.00023
628.52	0.10738	0.00047
628.56	0.10825	0.00027
628.6	0.1082	0.00032
628.64	0.10565	0.00039
628.68	0.11309	0.00041
628.72	0.1083	0.00031
628.76	0.10835	0.00033
628.80	0.11589	0.00042
628.84	0.1168	0.00042
628.88	0.114	0.00047
628.92	0.11416	0.00051
628.96	0.12266	0.00034
629.0	0.11594	0.00031
629.04	0.11609	0.00034
629.08	0.11696	0.00031
629.12	0.1168	0.00027
629.16	0.11981	0.00031
629.2	0.11874	0.00023
629.24	0.12363	0.00033
629.28	0.12083	0.0005
629.32	0.11273	0.00027
629.36	0.11298	0.00034
629.4	0.11492	0.00031
629.44	0.11472	0.00044
629.48	0.11018	0.00027
629.52	0.11691	0.00042
629.56	0.11507	0.00047
629.6	0.11095	0.00034
629.64	0.11105	0.00041
629.68	0.11237	0.00038
629.72	0.1111	0.0004
629.76	0.11008	0.0004
629.80	0.10224	0.00033
629.84	0.11029	0.00048
629.88	0.11115	0.0005
629.92	0.1112	0.00036
629.96	0.10367	0.00036
630.0	0.09914	0.00055
630.04	0.10362	0.00023
630.08	0.10362	0.0006
630.12	0.10066	0.00038
630.16	0.09909	0.00036
630.2	0.10077	0.00041
630.24	0.10082	0.00047
630.28	0.09511	0.00046
630.32	0.09914	0.00038
630.36	0.09562	0.0004
630.4	0.09802	0.00032
630.44	0.09058	0.00047
630.48	0.09135	0.00048
630.52	0.0914	0.00051
630.56	0.08819	0.0004
630.6	0.09629	0.00025
630.64	0.0916	0.00034
630.68	0.09033	0.00048
630.72	0.0943	0.00033
630.76	0.09298	0.00048
630.80	0.09552	0.00053
630.84	0.09501	0.00048
630.88	0.0916	0.00052
630.92	0.08778	0.00048
630.96	0.09242	0.00051
631.0	0.09425	0.00052
631.04	0.09333	0.00044
631.08	0.09547	0.00032
631.12	0.09527	0.00034
631.16	0.09221	0.00041
631.2	0.09216	0.00025
631.24	0.08926	0.00055
631.28	0.09328	0.00056
631.32	0.09231	0.00038
631.36	0.09226	0.00046
631.4	0.09221	0.00034
631.44	0.09318	0.00025
631.48	0.09527	0.00047
631.52	0.0914	0.00051
631.56	0.09527	0.00047
631.6	0.09527	0.00034
631.64	0.09705	0.00042
631.68	0.08967	0.00034
631.72	0.08951	0.00046
631.76	0.0916	0.00041
631.80	0.09898	0.00036
631.84	0.10173	0.00046
631.88	0.10397	0.00033
631.92	0.10632	0.00033
631.96	0.11523	0.00038
632.0	0.11502	0.00052
632.04	0.12169	0.00052
632.08	0.11884	0.00042
632.12	0.12062	0.00025
632.16	0.125	0.00051
632.2	0.13574	0.00036
632.24	0.13936	0.00031
632.28	0.13946	0.00034
632.32	0.14511	0.00034
632.36	0.14226	0.00027
632.4	0.14893	0.00051
632.44	0.15341	0.00038
632.48	0.15672	0.0004
632.52	0.15662	0.00036
632.56	0.1613	0.0004
632.6	0.16125	0.0005
632.64	0.16599	0.00034
632.68	0.16695	0.00061
632.72	0.164	0.00052
632.76	0.17347	0.00031
632.80	0.17429	0.00031
632.84	0.18284	0.00034
632.88	0.18258	0.00048
632.92	0.1696	0.00034
632.96	0.16772	0.00042
633.0	0.16298	0.00057
633.04	0.16487	0.00046
633.08	0.16792	0.0004
633.12	0.16802	0.00052
633.16	0.16604	0.00057
633.2	0.16604	0.00041
633.24	0.16426	0.00042
633.28	0.15718	0.00031
633.32	0.15341	0.00038
633.36	0.15652	0.00027
633.4	0.15071	0.00047
633.44	0.14053	0.00052
633.48	0.14027	0.00046
633.52	0.14109	0.00047
633.56	0.13218	0.00027
633.6	0.13508	0.00044
633.64	0.13396	0.00041
633.68	0.13305	0.00031
633.72	0.11594	0.00044
633.76	0.11594	0.00038
633.80	0.12057	0.00046
633.84	0.11869	0.00052
633.88	0.12439	0.00044
633.92	0.11971	0.00047
633.96	0.11691	0.00036
634.0	0.11008	0.00046
634.04	0.11024	0.00039
634.08	0.11018	0.00048
634.12	0.10611	0.00027
634.16	0.1054	0.00034
634.2	0.1029	0.00041
634.24	0.1001	0.00036
634.28	0.09517	0.00047
634.32	0.09323	0.00034
634.36	0.09328	0.0004
634.4	0.09771	0.00034
634.44	0.09511	0.00051
634.48	0.09618	0.00034
634.52	0.0942	0.00047
634.56	0.09328	0.0004
634.6	0.09318	0.00041
634.64	0.08768	0.00033
634.68	0.08794	0.00031
634.72	0.08763	0.00025
634.76	0.08962	0.00041
634.80	0.09221	0.00025
634.84	0.10021	0.00051
634.88	0.09318	0.00034
634.92	0.09226	0.00033
634.96	0.09221	0.00025
635.0	0.09695	0.00036
635.04	0.09124	0.00056
635.08	0.09043	0.00048
635.12	0.09211	0.00041
635.16	0.08941	0.00036
635.2	0.0944	0.00036
635.24	0.09415	0.00052
635.28	0.09364	0.00057
635.32	0.09909	0.00042
635.36	0.09318	0.00052
635.4	0.0941	0.00023
635.44	0.09496	0.00039
635.48	0.09613	0.00033
635.52	0.0941	0.0004
635.56	0.0944	0.00015
635.6	0.0942	0.00041
635.64	0.09231	0.0005
635.68	0.10224	0.0004
635.72	0.09247	0.00027
635.76	0.08855	0.00034
635.80	0.0941	0.00033
635.84	0.0945	0.00058
635.88	0.09522	0.00041
635.92	0.09415	0.00034
635.96	0.09191	0.00032
636.0	0.09145	0.00042
636.04	0.09053	0.00033
636.08	0.09623	0.00034
636.12	0.09613	0.00046
636.16	0.0943	0.0004
636.2	0.09338	0.00042
636.24	0.09359	0.0004
636.28	0.0914	0.00039
636.32	0.09812	0.00031
636.36	0.0943	0.00033
636.4	0.09588	0.00038
636.44	0.09598	0.00039
636.48	0.09231	0.00038
636.52	0.0941	0.00033
636.56	0.09496	0.00056
636.6	0.09791	0.00044
636.64	0.09221	0.00041
636.68	0.08931	0.00053
636.72	0.08941	0.00048
636.76	0.08885	0.00056
636.80	0.09435	0.0002
636.84	0.09542	0.00027
636.88	0.09522	0.00034
636.92	0.08758	0.00034
636.96	0.09333	0.00044
637.0	0.09226	0.00051
637.04	0.09221	0.00041
637.08	0.09028	0.0005
637.12	0.09629	0.00041
637.16	0.08865	0.00034
637.2	0.09425	0.00047
637.24	0.09343	0.00039
637.28	0.09028	0.00038
637.32	0.09068	0.00041
637.36	0.09359	0.0006
637.4	0.0886	0.00047
637.44	0.09394	0.00032
637.48	0.09318	0.00069
637.52	0.09043	0.00048
637.56	0.09883	0.00041
637.6	0.09893	0.0005
637.64	0.09914	0.00044
637.68	0.09797	0.00027
637.72	0.09313	0.00025
637.76	0.09527	0.00041
637.80	0.09221	0.00041
637.84	0.09221	0.00034
637.88	0.0886	0.00052
637.92	0.0885	0.00033
637.96	0.09791	0.0002
638.0	0.09735	0.0004
638.04	0.09236	0.00053
638.08	0.09511	0.00056
638.12	0.09216	0.00034
638.16	0.09338	0.00042
638.2	0.09338	0.00027
638.24	0.09435	0.00038
638.28	0.09532	0.00046
638.32	0.0914	0.00039
638.36	0.09725	0.00047
638.4	0.09323	0.00052
638.44	0.09618	0.00052
638.48	0.09613	0.00023
638.52	0.08692	0.0002
638.56	0.09028	0.00044
638.6	0.09236	0.00058
638.64	0.0942	0.00041
638.68	0.09893	0.0005
638.72	0.09175	0.0004
638.76	0.09435	0.00031
638.80	0.0943	0.00023
638.84	0.09435	0.00031
638.88	0.09613	0.00033
638.92	0.09629	0.00025
638.96	0.09603	0.00048
639.0	0.09338	0.00042
639.04	0.09603	0.00042
639.08	0.09603	0.00036
639.12	0.09196	0.00036
639.16	0.0944	0.00058
639.2	0.08936	0.00039
639.24	0.09898	0.00027
639.28	0.09338	0.00048
639.32	0.09053	0.00033
639.36	0.09791	0.00031
639.4	0.09797	0.00036
639.44	0.09593	0.00048
639.48	0.0941	0.00051
639.52	0.09914	0.00055
639.56	0.09354	0.00055
639.6	0.09888	0.00046
639.64	0.10173	0.00046
639.68	0.10189	0.00041
639.72	0.0944	0.00036
639.76	0.09511	0.00046
639.80	0.1027	0.00038
639.84	0.09797	0.00036
639.88	0.1	0.00027
639.92	0.09909	0.00036
639.96	0.09914	0.0005
640.0	0.10464	0.00039
640.04	0.10194	0.00033
640.08	0.0999	0.00046
640.12	0.09206	0.00033
640.16	0.09975	0.00034
640.2	0.09781	0.00034
640.24	0.09827	0.00057
640.28	0.09827	0.00034
640.32	0.10061	0.00027
640.36	0.1027	0.00038
640.4	0.10071	0.0004
640.44	0.10759	0.00055
640.48	0.10183	0.00041
640.52	0.1025	0.00031
640.56	0.10275	0.00051
