Raman-Spectrum _CDCl3 _pol90as01.dat
27/09/2021
10:38:18
_CDCl3
_pol90as Temp: NON
X in nm	Y Signal 	Error Signal				
625.04000	0.08956	0.00041
625.08000	0.09898	0.00048
625.12000	0.09975	0.00041
625.16000	0.09313	0.00047
625.20000	0.09033	0.00042
625.24000	0.09593	0.00027
625.28000	0.09623	0.00025
625.32000	0.09613	0.00023
625.36000	0.09231	0.00031
625.40000	0.09226	0.00051
625.44000	0.09710	0.00055
625.48000	0.09700	0.00039
625.52000	0.09328	0.00033
625.56000	0.09313	0.00047
625.60000	0.09552	0.00015
625.64000	0.09145	0.00036
625.68000	0.09048	0.00050
625.72000	0.09405	0.00031
625.76000	0.09430	0.00023
625.80000	0.09048	0.00059
625.84000	0.09033	0.00036
625.88000	0.09914	0.00044
625.92000	0.09048	0.00031
625.96000	0.09634	0.00040
626.00000	0.09155	0.00046
626.04000	0.09618	0.00047
626.08000	0.09598	0.00032
626.12000	0.09038	0.00032
626.16000	0.09058	0.00025
626.20000	0.09038	0.00064
626.24000	0.09328	0.00056
626.28000	0.09211	0.00041
626.32000	0.09420	0.00025
626.36000	0.09318	0.00057
626.40000	0.09333	0.00038
626.44000	0.09328	0.00046
626.48000	0.09043	0.00048
626.52000	0.09715	0.00040
626.56000	0.09308	0.00056
626.60000	0.09623	0.00047
626.64000	0.09242	0.00060
626.68000	0.09242	0.00046
626.72000	0.09242	0.00046
626.76000	0.09206	0.00033
626.80000	0.09639	0.00055
626.84000	0.09527	0.00034
626.88000	0.09786	0.00023
626.92000	0.09517	0.00061
626.96000	0.09496	0.00039
627.00000	0.09425	0.00034
627.04000	0.09410	0.00040
627.08000	0.09323	0.00034
627.12000	0.09333	0.00038
627.16000	0.09247	0.00036
627.20000	0.09598	0.00039
627.24000	0.09598	0.00046
627.28000	0.10189	0.00047
627.32000	0.10204	0.00027
627.36000	0.09903	0.00051
627.40000	0.09231	0.00050
627.44000	0.09781	0.00025
627.48000	0.09527	0.00041
627.52000	0.10387	0.00041
627.56000	0.09817	0.00051
627.60000	0.09929	0.00047
627.64000	0.09924	0.00057
627.68000	0.09985	0.00034
627.72000	0.09786	0.00033
627.76000	0.09812	0.00020
627.80000	0.10637	0.00034
627.84000	0.09786	0.00060
627.88000	0.10469	0.00027
627.92000	0.10474	0.00020
627.96000	0.09715	0.00040
628.00000	0.10738	0.00052
628.04000	0.10280	0.00047
628.08000	0.10382	0.00041
628.12000	0.10917	0.00042
628.16000	0.10346	0.00056
628.20000	0.10367	0.00042
628.24000	0.11054	0.00041
628.28000	0.10937	0.00046
628.32000	0.10652	0.00046
628.36000	0.10550	0.00040
628.40000	0.11400	0.00052
628.44000	0.11085	0.00038
628.48000	0.11670	0.00040
628.52000	0.11685	0.00046
628.56000	0.11095	0.00041
628.60000	0.10861	0.00031
628.64000	0.11772	0.00033
628.68000	0.11034	0.00050
628.72000	0.11329	0.00032
628.76000	0.10382	0.00041
628.80000	0.10377	0.00056
628.84000	0.10382	0.00025
628.88000	0.11120	0.00036
628.92000	0.11049	0.00025
628.96000	0.10922	0.00060
629.00000	0.10565	0.00032
629.04000	0.10912	0.00031
629.08000	0.10112	0.00027
629.12000	0.10077	0.00047
629.16000	0.10092	0.00068
629.20000	0.09674	0.00041
629.24000	0.10372	0.00038
629.28000	0.09888	0.00046
629.32000	0.10077	0.00034
629.36000	0.10183	0.00047
629.40000	0.10178	0.00034
629.44000	0.09629	0.00041
629.48000	0.08916	0.00052
629.52000	0.09338	0.00042
629.56000	0.09797	0.00027
629.60000	0.09547	0.00051
629.64000	0.09440	0.00027
629.68000	0.09415	0.00025
629.72000	0.09140	0.00032
629.76000	0.09435	0.00031
629.80000	0.08860	0.00034
629.84000	0.09542	0.00048
629.88000	0.09150	0.00038
629.92000	0.09517	0.00034
629.96000	0.08951	0.00046
630.00000	0.08931	0.00036
630.04000	0.09023	0.00040
630.08000	0.08956	0.00041
630.12000	0.08666	0.00033
630.16000	0.08946	0.00059
630.20000	0.08778	0.00027
630.24000	0.08692	0.00050
630.28000	0.08656	0.00047
630.32000	0.08865	0.00034
630.36000	0.09231	0.00031
630.40000	0.09012	0.00047
630.44000	0.09038	0.00032
630.48000	0.08860	0.00069
630.52000	0.08839	0.00042
630.56000	0.08844	0.00064
630.60000	0.08951	0.00046
630.64000	0.08855	0.00041
630.68000	0.09043	0.00027
630.72000	0.08687	0.00053
630.76000	0.08875	0.00031
630.80000	0.08860	0.00061
630.84000	0.09216	0.00034
630.88000	0.09262	0.00047
630.92000	0.09415	0.00034
630.96000	0.09028	0.00031
631.00000	0.08478	0.00051
631.04000	0.08641	0.00044
631.08000	0.09328	0.00046
631.12000	0.09354	0.00031
631.16000	0.09338	0.00053
631.20000	0.09053	0.00051
631.24000	0.08865	0.00052
631.28000	0.09807	0.00027
631.32000	0.10290	0.00034
631.36000	0.10764	0.00042
631.40000	0.11309	0.00041
631.44000	0.11604	0.00041
631.48000	0.11614	0.00034
631.52000	0.12429	0.00034
631.56000	0.12826	0.00061
631.60000	0.13004	0.00048
631.64000	0.13111	0.00046
631.68000	0.13768	0.00048
631.72000	0.13600	0.00041
631.76000	0.13610	0.00031
631.80000	0.14888	0.00036
631.84000	0.14720	0.00034
631.88000	0.15361	0.00044
631.92000	0.15662	0.00036
631.96000	0.15759	0.00023
632.00000	0.16222	0.00048
632.04000	0.16191	0.00041
632.08000	0.16904	0.00025
632.12000	0.17123	0.00020
632.16000	0.17245	0.00050
632.20000	0.17149	0.00023
632.24000	0.16711	0.00033
632.28000	0.17271	0.00060
632.32000	0.17337	0.00032
632.36000	0.17352	0.00046
632.40000	0.16721	0.00053
632.44000	0.17133	0.00023
632.48000	0.17164	0.00047
632.52000	0.16690	0.00056
632.56000	0.16588	0.00033
632.60000	0.16410	0.00038
632.64000	0.16405	0.00051
632.68000	0.15591	0.00046
632.72000	0.15545	0.00038
632.76000	0.15107	0.00031
632.80000	0.15081	0.00040
632.84000	0.13931	0.00042
632.88000	0.14516	0.00025
632.92000	0.14511	0.00041
632.96000	0.13585	0.00040
633.00000	0.13834	0.00055
633.04000	0.13213	0.00051
633.08000	0.12057	0.00056
633.12000	0.13116	0.00027
633.16000	0.12907	0.00023
633.20000	0.12261	0.00056
633.24000	0.12251	0.00058
633.28000	0.12159	0.00051
633.32000	0.11212	0.00023
633.36000	0.11691	0.00036
633.40000	0.10652	0.00040
633.44000	0.10570	0.00042
633.48000	0.10830	0.00020
633.52000	0.10830	0.00050
633.56000	0.10362	0.00046
633.60000	0.09985	0.00025
633.64000	0.09348	0.00053
633.68000	0.09221	0.00047
633.72000	0.08773	0.00031
633.76000	0.08646	0.00033
633.80000	0.09226	0.00033
633.84000	0.09236	0.00042
633.88000	0.08870	0.00040
633.92000	0.08676	0.00053
633.96000	0.08941	0.00042
634.00000	0.09496	0.00056
634.04000	0.08763	0.00034
634.08000	0.08829	0.00036
634.12000	0.08834	0.00039
634.16000	0.08768	0.00046
634.20000	0.08844	0.00044
634.24000	0.08931	0.00042
634.28000	0.08213	0.00064
634.32000	0.08407	0.00057
634.36000	0.08086	0.00033
634.40000	0.08096	0.00061
634.44000	0.08967	0.00061
634.48000	0.08682	0.00051
634.52000	0.08855	0.00052
634.56000	0.09298	0.00053
634.60000	0.08748	0.00033
634.64000	0.09206	0.00033
634.68000	0.08585	0.00027
634.72000	0.08580	0.00039
634.76000	0.08951	0.00065
634.80000	0.08661	0.00041
634.84000	0.08743	0.00038
634.88000	0.09440	0.00048
634.92000	0.08844	0.00038
634.96000	0.08860	0.00047
635.00000	0.08870	0.00040
635.04000	0.08763	0.00034
635.08000	0.08676	0.00036
635.12000	0.08794	0.00038
635.16000	0.08839	0.00048
635.20000	0.08676	0.00048
635.24000	0.09155	0.00046
635.28000	0.09140	0.00046
635.32000	0.08580	0.00046
635.36000	0.08844	0.00064
635.40000	0.08870	0.00046
635.44000	0.09348	0.00042
635.48000	0.09043	0.00053
635.52000	0.08788	0.00027
635.56000	0.08682	0.00039
635.60000	0.08692	0.00038
635.64000	0.08376	0.00039
635.68000	0.08778	0.00048
635.72000	0.09023	0.00046
635.76000	0.09124	0.00051
635.80000	0.08753	0.00034
635.84000	0.09043	0.00053
635.88000	0.09038	0.00032
635.92000	0.09053	0.00065
635.96000	0.08386	0.00044
636.00000	0.08941	0.00042
636.04000	0.08778	0.00062
636.08000	0.09145	0.00027
636.12000	0.09236	0.00058
636.16000	0.09445	0.00032
636.20000	0.09420	0.00034
636.24000	0.08758	0.00034
636.28000	0.09216	0.00025
636.32000	0.08682	0.00051
636.36000	0.08483	0.00036
636.40000	0.08712	0.00034
636.44000	0.08956	0.00034
636.48000	0.08951	0.00033
636.52000	0.08778	0.00015
636.56000	0.08962	0.00025
636.60000	0.08177	0.00027
636.64000	0.08855	0.00025
636.68000	0.08732	0.00032
636.72000	0.09028	0.00038
636.76000	0.09038	0.00060
636.80000	0.09343	0.00046
636.84000	0.08656	0.00047
636.88000	0.09338	0.00058
636.92000	0.08478	0.00039
636.96000	0.08880	0.00048
637.00000	0.08844	0.00038
637.04000	0.08773	0.00044
637.08000	0.08778	0.00036
637.12000	0.08468	0.00044
637.16000	0.08773	0.00038
637.20000	0.08763	0.00025
637.24000	0.08391	0.00033
637.28000	0.09343	0.00039
637.32000	0.08575	0.00048
637.36000	0.08585	0.00036
637.40000	0.08834	0.00039
637.44000	0.09140	0.00032
637.48000	0.09206	0.00033
637.52000	0.09313	0.00025
637.56000	0.08962	0.00041
637.60000	0.08865	0.00047
637.64000	0.08839	0.00036
637.68000	0.08967	0.00041
637.72000	0.09318	0.00041
637.76000	0.08977	0.00031
637.80000	0.08778	0.00027
637.84000	0.08671	0.00038
637.88000	0.08839	0.00042
637.92000	0.08875	0.00059
637.96000	0.08824	0.00038
638.00000	0.08829	0.00027
638.04000	0.08651	0.00025
638.08000	0.08778	0.00036
638.12000	0.08682	0.00060
638.16000	0.09242	0.00046
638.20000	0.09348	0.00036
638.24000	0.09323	0.00052
638.28000	0.09023	0.00056
638.32000	0.09715	0.00033
638.36000	0.09053	0.00023
638.40000	0.09354	0.00044
638.44000	0.08773	0.00031
638.48000	0.08855	0.00041
638.52000	0.09155	0.00033
638.56000	0.09165	0.00025
638.60000	0.09048	0.00055
638.64000	0.08687	0.00042
638.68000	0.08951	0.00033
638.72000	0.09236	0.00036
638.76000	0.09797	0.00036
638.80000	0.08860	0.00041
638.84000	0.08829	0.00036
638.88000	0.09048	0.00050
638.92000	0.09206	0.00051
638.96000	0.08753	0.00057
639.00000	0.09058	0.00034
639.04000	0.09802	0.00032
639.08000	0.09221	0.00034
639.12000	0.09226	0.00040
639.16000	0.09028	0.00031
639.20000	0.09629	0.00025
639.24000	0.09802	0.00051
639.28000	0.09776	0.00034
639.32000	0.09608	0.00031
639.36000	0.09491	0.00042
639.40000	0.09817	0.00046
639.44000	0.09807	0.00027
639.48000	0.09522	0.00025
639.52000	0.10209	0.00051
639.56000	0.09914	0.00044
639.60000	0.09354	0.00038
639.64000	0.09170	0.00034
639.68000	0.09868	0.00040
639.72000	0.09919	0.00046
639.76000	0.09318	0.00034
639.80000	0.09868	0.00065
639.84000	0.09685	0.00040
639.88000	0.10092	0.00033
639.92000	0.09710	0.00044
639.96000	0.09786	0.00046
640.00000	0.09786	0.00046
640.04000	0.10352	0.00020
640.08000	0.10458	0.00015
640.12000	0.10387	0.00041
640.16000	0.09450	0.00027
640.20000	0.09710	0.00044
640.24000	0.10357	0.00036
640.28000	0.10087	0.00052
640.32000	0.10071	0.00023
640.36000	0.10061	0.00042
640.40000	0.10000	0.00042
640.44000	0.10000	0.00036
640.48000	0.09909	0.00062
640.52000	0.10280	0.00041
640.56000	0.10005	0.00032
640.60000	0.10010	0.00042
640.64000	0.09547	0.00051
640.68000	0.09873	0.00057
640.72000	0.09720	0.00041
640.76000	0.09542	0.00042
640.80000	0.09786	0.00051
640.84000	0.09435	0.00044
640.88000	0.09786	0.00060
640.92000	0.09797	0.00036
640.96000	0.09415	0.00034
641.00000	0.09618	0.00025
641.04000	0.09995	0.00050
641.08000	0.09517	0.00041
641.12000	0.10194	0.00040
641.16000	0.09629	0.00034
641.20000	0.09593	0.00027
641.24000	0.09522	0.00025
641.28000	0.09435	0.00055
641.32000	0.10092	0.00046
641.36000	0.09221	0.00041
641.40000	0.09822	0.00041
641.44000	0.09802	0.00046
641.48000	0.09797	0.00058
641.52000	0.10545	0.00057
641.56000	0.09914	0.00055
641.60000	0.09822	0.00025
641.64000	0.09914	0.00038
641.68000	0.10280	0.00052
641.72000	0.10097	0.00038
641.76000	0.10280	0.00041
641.80000	0.10265	0.00036
641.84000	0.09685	0.00033
641.88000	0.10545	0.00047
641.92000	0.10387	0.00061
641.96000	0.10642	0.00034
642.00000	0.10749	0.00047
642.04000	0.10733	0.00040
642.08000	0.10764	0.00058
642.12000	0.11874	0.00046
642.16000	0.10947	0.00041
642.20000	0.11976	0.00040
642.24000	0.12154	0.00050
642.28000	0.12072	0.00034
642.32000	0.12836	0.00041
642.36000	0.12800	0.00048
642.40000	0.13590	0.00047
642.44000	0.13753	0.00025
642.48000	0.14430	0.00036
642.52000	0.16146	0.00034
642.56000	0.15570	0.00056
642.60000	0.16588	0.00056
642.64000	0.17337	0.00046
642.68000	0.17362	0.00034
642.72000	0.17917	0.00025
642.76000	0.19317	0.00058
642.80000	0.19989	0.00042
642.84000	0.21008	0.00036
642.88000	0.22530	0.00056
642.92000	0.24332	0.00047
642.96000	0.24302	0.00031
643.00000	0.23767	0.00046
643.04000	0.25621	0.00033
643.08000	0.26002	0.00044
643.12000	0.25269	0.00031
643.16000	0.25636	0.00051
643.20000	0.25570	0.00040
643.24000	0.26863	0.00042
643.28000	0.26878	0.00052
643.32000	0.26603	0.00056
643.36000	0.25926	0.00040
643.40000	0.26008	0.00040
643.44000	0.24903	0.00034
643.48000	0.25386	0.00048
643.52000	0.24419	0.00042
643.56000	0.24450	0.00023
643.60000	0.22943	0.00053
643.64000	0.24317	0.00036
643.68000	0.22815	0.00034
643.72000	0.22713	0.00034
643.76000	0.21863	0.00036
643.80000	0.20539	0.00036
643.84000	0.20560	0.00056
643.88000	0.20432	0.00038
643.92000	0.19241	0.00041
643.96000	0.18762	0.00051
644.00000	0.17143	0.00031
644.04000	0.15743	0.00046
644.08000	0.15458	0.00042
644.12000	0.14705	0.00040
644.16000	0.14705	0.00040
644.20000	0.14236	0.00042
644.24000	0.12729	0.00047
644.28000	0.13198	0.00040
644.32000	0.11889	0.00032
644.36000	0.11421	0.00031
644.40000	0.11324	0.00036
644.44000	0.11319	0.00055
644.48000	0.11039	0.00056
644.52000	0.10382	0.00052
644.56000	0.10733	0.00046
644.60000	0.10825	0.00027
644.64000	0.09791	0.00031
644.68000	0.10545	0.00061
644.72000	0.10560	0.00053
644.76000	0.10647	0.00025
644.80000	0.10947	0.00034
644.84000	0.09807	0.00027
644.88000	0.10850	0.00047
644.92000	0.10189	0.00034
644.96000	0.10331	0.00041
645.00000	0.10183	0.00025
645.04000	0.10163	0.00058
645.08000	0.09878	0.00034
645.12000	0.10290	0.00041
645.16000	0.09160	0.00047
645.20000	0.09781	0.00034
645.24000	0.09990	0.00065
645.28000	0.10295	0.00033
645.32000	0.10295	0.00033
645.36000	0.09506	0.00055
645.40000	0.09786	0.00046
645.44000	0.10092	0.00033
645.48000	0.09328	0.00040
645.52000	0.10021	0.00023
645.56000	0.09333	0.00044
645.60000	0.09140	0.00039
645.64000	0.09165	0.00034
645.68000	0.09868	0.00046
645.72000	0.09725	0.00025
645.76000	0.09527	0.00041
645.80000	0.10357	0.00048
645.84000	0.09216	0.00047
645.88000	0.09802	0.00046
645.92000	0.09802	0.00039
645.96000	0.10087	0.00034
646.00000	0.09420	0.00034
646.04000	0.10377	0.00033
646.08000	0.09700	0.00051
646.12000	0.10178	0.00047
646.16000	0.10367	0.00048
646.20000	0.10372	0.00044
646.24000	0.10077	0.00034
646.28000	0.10194	0.00040
646.32000	0.10280	0.00034
646.36000	0.10209	0.00039
646.40000	0.11125	0.00039
646.44000	0.10632	0.00046
646.48000	0.11217	0.00031
646.52000	0.11207	0.00025
646.56000	0.11589	0.00070
646.60000	0.11869	0.00034
646.64000	0.12459	0.00044
646.68000	0.13101	0.00050
646.72000	0.13870	0.00027
646.76000	0.14236	0.00036
646.80000	0.14241	0.00031
646.84000	0.14532	0.00042
646.88000	0.16792	0.00051
646.92000	0.17444	0.00036
646.96000	0.18773	0.00020
647.00000	0.19618	0.00038
647.04000	0.21130	0.00047
647.08000	0.21079	0.00025
647.12000	0.22153	0.00047
647.16000	0.24017	0.00050
647.20000	0.25992	0.00039
647.24000	0.27688	0.00051
647.28000	0.29582	0.00034
647.32000	0.31572	0.00025
647.36000	0.33263	0.00031
647.40000	0.33242	0.00025
647.44000	0.33339	0.00023
647.48000	0.34887	0.00046
647.52000	0.33568	0.00050
647.56000	0.34872	0.00052
647.60000	0.34714	0.00046
647.64000	0.34867	0.00056
647.68000	0.34887	0.00046
647.72000	0.33283	0.00038
647.76000	0.34938	0.00046
647.80000	0.32805	0.00038
647.84000	0.32265	0.00044
647.88000	0.31903	0.00042
647.92000	0.30340	0.00034
647.96000	0.30753	0.00047
648.00000	0.30717	0.00031
648.04000	0.28726	0.00023
648.08000	0.27515	0.00048
648.12000	0.26109	0.00023
648.16000	0.23839	0.00040
648.20000	0.23004	0.00033
648.24000	0.20356	0.00040
648.28000	0.20371	0.00034
648.32000	0.18584	0.00034
648.36000	0.17714	0.00047
648.40000	0.16298	0.00047
648.44000	0.14241	0.00055
648.48000	0.14430	0.00048
648.52000	0.12912	0.00080
648.56000	0.12907	0.00023
648.60000	0.11416	0.00033
648.64000	0.11492	0.00031
648.68000	0.11232	0.00053
648.72000	0.10479	0.00023
648.76000	0.10458	0.00027
648.80000	0.09883	0.00047
648.84000	0.09832	0.00041
648.88000	0.09817	0.00023
648.92000	0.10448	0.00033
648.96000	0.10000	0.00027
649.00000	0.10295	0.00033
649.04000	0.09715	0.00046
649.08000	0.09975	0.00047
649.12000	0.09812	0.00064
649.16000	0.09807	0.00027
649.20000	0.09542	0.00036
649.24000	0.08839	0.00036
649.28000	0.09730	0.00034
649.32000	0.09527	0.00047
649.36000	0.08956	0.00052
649.40000	0.09700	0.00056
649.44000	0.09735	0.00046
649.48000	0.09715	0.00033
649.52000	0.09720	0.00025
649.56000	0.09435	0.00031
649.60000	0.09710	0.00031
649.64000	0.08956	0.00034
649.68000	0.09236	0.00048
649.72000	0.09175	0.00040
649.76000	0.09145	0.00036
649.80000	0.09522	0.00041
649.84000	0.09242	0.00039
649.88000	0.09527	0.00052
649.92000	0.09807	0.00027
649.96000	0.09761	0.00050
650.00000	0.09613	0.00051
650.04000	0.09639	0.00044
650.08000	0.09425	0.00041
650.12000	0.09511	0.00033
650.16000	0.09033	0.00048
650.20000	0.09328	0.00056
650.24000	0.09511	0.00040
650.28000	0.09898	0.00058
650.32000	0.09812	0.00044
650.36000	0.09817	0.00040
650.40000	0.09348	0.00042
650.44000	0.09328	0.00040
650.48000	0.09700	0.00046
650.52000	0.08956	0.00041
650.56000	0.09827	0.00052
650.60000	0.09629	0.00041
650.64000	0.09629	0.00041
650.68000	0.09226	0.00040
650.72000	0.09023	0.00051
650.76000	0.09685	0.00023
650.80000	0.09501	0.00062
650.84000	0.09048	0.00059
650.88000	0.09425	0.00041
650.92000	0.09415	0.00041
650.96000	0.09364	0.00052
651.00000	0.09557	0.00044
651.04000	0.09440	0.00027
651.08000	0.08951	0.00051
651.12000	0.09145	0.00048
651.16000	0.09236	0.00042
651.20000	0.09191	0.00039
651.24000	0.09226	0.00046
651.28000	0.09313	0.00041
651.32000	0.09623	0.00034
651.36000	0.09211	0.00041
651.40000	0.09445	0.00032
651.44000	0.09608	0.00050
651.48000	0.09175	0.00040
651.52000	0.09150	0.00038
651.56000	0.09455	0.00031
651.60000	0.09043	0.00042
651.64000	0.09231	0.00020
651.68000	0.08839	0.00048
651.72000	0.09399	0.00042
651.76000	0.09145	0.00042
651.80000	0.09140	0.00032
651.84000	0.08768	0.00023
651.88000	0.09399	0.00053
651.92000	0.09623	0.00025
651.96000	0.09140	0.00046
652.00000	0.09481	0.00046
652.04000	0.09058	0.00057
652.08000	0.09160	0.00025
652.12000	0.09160	0.00047
652.16000	0.09084	0.00036
652.20000	0.08911	0.00034
652.24000	0.09155	0.00051
652.28000	0.08564	0.00040
652.32000	0.08921	0.00046
652.36000	0.08829	0.00062
652.40000	0.08855	0.00047
652.44000	0.09430	0.00046
652.48000	0.08956	0.00034
652.52000	0.08676	0.00058
652.56000	0.09068	0.00041
652.60000	0.09328	0.00023
652.64000	0.09226	0.00033
652.68000	0.09130	0.00050
652.72000	0.09155	0.00046
652.76000	0.09323	0.00041
652.80000	0.08962	0.00047
652.84000	0.09405	0.00044
652.88000	0.09491	0.00027
652.92000	0.09425	0.00047
652.96000	0.09527	0.00034
653.00000	0.09522	0.00047
653.04000	0.09333	0.00044
653.08000	0.09231	0.00050
653.12000	0.08783	0.00023
653.16000	0.09725	0.00025
653.20000	0.09221	0.00025
653.24000	0.08941	0.00053
653.28000	0.08967	0.00025
653.32000	0.09160	0.00061
653.36000	0.08844	0.00059
653.40000	0.09328	0.00046
653.44000	0.09323	0.00034
653.48000	0.08829	0.00042
653.52000	0.09221	0.00047
653.56000	0.08972	0.00023
653.60000	0.08972	0.00040
653.64000	0.09343	0.00046
653.68000	0.09033	0.00027
653.72000	0.08956	0.00025
653.76000	0.08844	0.00059
653.80000	0.09211	0.00025
653.84000	0.09618	0.00052
653.88000	0.09629	0.00047
653.92000	0.09155	0.00051
653.96000	0.09308	0.00046
654.00000	0.09048	0.00055
654.04000	0.09919	0.00051
654.08000	0.09695	0.00036
654.12000	0.09710	0.00031
654.16000	0.09720	0.00041
654.20000	0.09323	0.00025
654.24000	0.08676	0.00036
654.28000	0.09898	0.00042
654.32000	0.08951	0.00040
654.36000	0.09608	0.00038
654.40000	0.08956	0.00034
654.44000	0.09252	0.00044
654.48000	0.09236	0.00042
654.52000	0.09130	0.00044
654.56000	0.08778	0.00048
654.60000	0.08773	0.00044
654.64000	0.09262	0.00041
654.68000	0.09542	0.00036
654.72000	0.09333	0.00055
654.76000	0.09318	0.00047
654.80000	0.09308	0.00056
654.84000	0.09226	0.00033
654.88000	0.09598	0.00032
654.92000	0.09160	0.00041
654.96000	0.09211	0.00047
655.00000	0.09522	0.00047
655.04000	0.08682	0.00032
655.08000	0.08682	0.00039
655.12000	0.08967	0.00052
655.16000	0.09155	0.00040
655.20000	0.09343	0.00051
655.24000	0.09216	0.00069
655.28000	0.08778	0.00036
655.32000	0.09440	0.00058
655.36000	0.09399	0.00042
655.40000	0.08834	0.00051
655.44000	0.09226	0.00040
655.48000	0.09145	0.00036
655.52000	0.08972	0.00040
655.56000	0.09048	0.00038
655.60000	0.09145	0.00027
655.64000	0.09145	0.00042
655.68000	0.08875	0.00055
655.72000	0.08844	0.00031
655.76000	0.08860	0.00034
655.80000	0.09038	0.00032
655.84000	0.08850	0.00040
655.88000	0.09517	0.00025
655.92000	0.09496	0.00039
655.96000	0.09532	0.00033
656.00000	0.09160	0.00025
656.04000	0.08962	0.00047
656.08000	0.09501	0.00058
656.12000	0.09318	0.00057
656.16000	0.08972	0.00051
656.20000	0.09180	0.00038
656.24000	0.09140	0.00051
656.28000	0.09124	0.00046
656.32000	0.09155	0.00046
656.36000	0.08834	0.00046
656.40000	0.09517	0.00047
656.44000	0.09720	0.00034
656.48000	0.09517	0.00041
656.52000	0.09435	0.00031
656.56000	0.09425	0.00034
656.60000	0.09450	0.00042
656.64000	0.09700	0.00051
656.68000	0.09145	0.00036
656.72000	0.08936	0.00039
656.76000	0.09252	0.00020
656.80000	0.09221	0.00041
656.84000	0.09231	0.00038
656.88000	0.09033	0.00058
656.92000	0.09410	0.00040
656.96000	0.08702	0.00025
657.00000	0.09318	0.00034
657.04000	0.09415	0.00025
657.08000	0.09226	0.00033
657.12000	0.09262	0.00047
657.16000	0.09175	0.00051
657.20000	0.08951	0.00040
657.24000	0.08982	0.00027
657.28000	0.09354	0.00031
657.32000	0.09236	0.00027
657.36000	0.09226	0.00046
657.40000	0.09216	0.00052
657.44000	0.09236	0.00036
657.48000	0.09145	0.00036
657.52000	0.08951	0.00033
657.56000	0.09338	0.00042
657.60000	0.09140	0.00046
657.64000	0.09537	0.00044
657.68000	0.09791	0.00031
657.72000	0.09822	0.00047
657.76000	0.08860	0.00041
657.80000	0.08743	0.00050
657.84000	0.09084	0.00042
657.88000	0.09048	0.00038
657.92000	0.09522	0.00034
657.96000	0.09425	0.00065
658.00000	0.09394	0.00039
658.04000	0.09430	0.00040
658.08000	0.09038	0.00032
658.12000	0.09236	0.00042
658.16000	0.09623	0.00041
658.20000	0.09522	0.00047
658.24000	0.09420	0.00052
658.28000	0.10097	0.00020
658.32000	0.10092	0.00040
658.36000	0.09435	0.00020
658.40000	0.10077	0.00034
658.44000	0.09593	0.00053
658.48000	0.10550	0.00046
658.52000	0.09807	0.00053
658.56000	0.09812	0.00020
658.60000	0.09807	0.00027
658.64000	0.10759	0.00050
658.68000	0.11120	0.00042
658.72000	0.11222	0.00058
658.76000	0.11629	0.00048
658.80000	0.12989	0.00041
658.84000	0.13747	0.00025
658.88000	0.13564	0.00042
658.92000	0.13554	0.00040
658.96000	0.14139	0.00038
659.00000	0.15809	0.00056
659.04000	0.16945	0.00033
659.08000	0.18488	0.00041
659.12000	0.18849	0.00040
659.16000	0.20748	0.00060
659.20000	0.20723	0.00041
659.24000	0.21206	0.00051
659.28000	0.23574	0.00034
659.32000	0.23839	0.00023
659.36000	0.26527	0.00041
659.40000	0.28665	0.00034
659.44000	0.29862	0.00039
659.48000	0.29882	0.00025
659.52000	0.31420	0.00047
659.56000	0.33085	0.00040
659.60000	0.34872	0.00025
659.64000	0.35050	0.00036
659.68000	0.36109	0.00046
659.72000	0.36206	0.00047
659.76000	0.35345	0.00051
659.80000	0.35345	0.00033
659.84000	0.36572	0.00038
659.88000	0.34984	0.00034
659.92000	0.34332	0.00050
659.96000	0.34607	0.00038
660.00000	0.35635	0.00041
660.04000	0.33589	0.00031
660.08000	0.33533	0.00048
660.12000	0.33823	0.00055
660.16000	0.32031	0.00034
660.20000	0.30926	0.00036
660.24000	0.29022	0.00041
660.28000	0.26690	0.00023
660.32000	0.26028	0.00040
660.36000	0.26038	0.00053
660.40000	0.24893	0.00025
660.44000	0.22825	0.00055
660.48000	0.20886	0.00040
660.52000	0.17815	0.00061
660.56000	0.16782	0.00053
660.60000	0.16044	0.00034
660.64000	0.14608	0.00041
660.68000	0.14603	0.00046
660.72000	0.13315	0.00046
660.76000	0.12347	0.00056
660.80000	0.12169	0.00047
660.84000	0.11024	0.00051
660.88000	0.11018	0.00042
660.92000	0.10178	0.00052
660.96000	0.10204	0.00042
661.00000	0.10927	0.00042
661.04000	0.09501	0.00036
661.08000	0.09781	0.00034
661.12000	0.10148	0.00050
661.16000	0.10265	0.00036
661.20000	0.10168	0.00050
661.24000	0.09766	0.00023
661.28000	0.09791	0.00059
661.32000	0.09710	0.00038
661.36000	0.09323	0.00057
661.40000	0.10474	0.00031
661.44000	0.09547	0.00056
661.48000	0.09359	0.00051
661.52000	0.09883	0.00047
661.56000	0.09903	0.00023
661.60000	0.09226	0.00046
661.64000	0.09807	0.00036
661.68000	0.09527	0.00052
661.72000	0.09231	0.00050
661.76000	0.09155	0.00046
661.80000	0.09445	0.00046
661.84000	0.09435	0.00050
661.88000	0.09435	0.00020
661.92000	0.09812	0.00064
661.96000	0.09618	0.00034
662.00000	0.09812	0.00038
662.04000	0.10077	0.00025
662.08000	0.09924	0.00052
662.12000	0.10367	0.00036
662.16000	0.10387	0.00041
662.20000	0.10285	0.00034
662.24000	0.09700	0.00046
662.28000	0.09720	0.00034
662.32000	0.10173	0.00033
662.36000	0.10209	0.00039
662.40000	0.10453	0.00044
662.44000	0.10469	0.00027
662.48000	0.10560	0.00058
662.52000	0.10749	0.00034
662.56000	0.10749	0.00025
662.60000	0.11130	0.00042
662.64000	0.11395	0.00040
662.68000	0.11390	0.00038
662.72000	0.11395	0.00051
662.76000	0.11309	0.00047
662.80000	0.12062	0.00041
662.84000	0.11288	0.00038
662.88000	0.12245	0.00046
662.92000	0.12526	0.00041
662.96000	0.12251	0.00042
663.00000	0.12704	0.00032
663.04000	0.12739	0.00046
663.08000	0.12337	0.00064
663.12000	0.12149	0.00027
663.16000	0.12052	0.00020
663.20000	0.13086	0.00047
663.24000	0.12933	0.00034
663.28000	0.12561	0.00031
663.32000	0.12551	0.00032
663.36000	0.12352	0.00062
663.40000	0.13508	0.00050
663.44000	0.13131	0.00041
663.48000	0.13310	0.00042
663.52000	0.12928	0.00025
663.56000	0.14063	0.00040
663.60000	0.13294	0.00034
663.64000	0.13279	0.00046
663.68000	0.13554	0.00051
663.72000	0.14333	0.00046
663.76000	0.13870	0.00036
663.80000	0.13493	0.00041
663.84000	0.13019	0.00031
663.88000	0.13503	0.00033
663.92000	0.13493	0.00061
663.96000	0.13579	0.00038
664.00000	0.12907	0.00039
664.04000	0.13035	0.00034
664.08000	0.12724	0.00041
664.12000	0.11853	0.00040
664.16000	0.12067	0.00025
664.20000	0.12072	0.00052
664.24000	0.12164	0.00057
664.28000	0.11660	0.00025
664.32000	0.12821	0.00046
664.36000	0.11411	0.00025
664.40000	0.11497	0.00060
664.44000	0.11400	0.00025
664.48000	0.11589	0.00048
664.52000	0.11609	0.00052
664.56000	0.11792	0.00042
664.60000	0.10840	0.00057
664.64000	0.10545	0.00025
664.68000	0.10275	0.00051
664.72000	0.10540	0.00047
664.76000	0.10239	0.00025
664.80000	0.10250	0.00038
664.84000	0.10367	0.00027
664.88000	0.10367	0.00048
664.92000	0.10285	0.00034
664.96000	0.10173	0.00051
665.00000	0.10509	0.00036
665.04000	0.10535	0.00041
665.08000	0.10565	0.00046
665.12000	0.10102	0.00027
665.16000	0.09786	0.00040
665.20000	0.09598	0.00039
665.24000	0.09776	0.00025
665.28000	0.09618	0.00052
665.32000	0.09888	0.00033
665.36000	0.09695	0.00062
665.40000	0.09700	0.00039
665.44000	0.09919	0.00051
665.48000	0.09919	0.00051
665.52000	0.09909	0.00062
665.56000	0.09537	0.00031
665.60000	0.09415	0.00041
665.64000	0.09690	0.00020
665.68000	0.09725	0.00041
665.72000	0.09812	0.00031
665.76000	0.09903	0.00039
665.80000	0.09685	0.00040
665.84000	0.09807	0.00027
665.88000	0.09893	0.00050
665.92000	0.09720	0.00034
665.96000	0.09715	0.00065
666.00000	0.09735	0.00040
666.04000	0.09797	0.00027
666.08000	0.09634	0.00046
666.12000	0.10097	0.00038
666.16000	0.09623	0.00034
666.20000	0.09099	0.00059
666.24000	0.09700	0.00023
666.28000	0.09700	0.00023
666.32000	0.09043	0.00027
666.36000	0.09303	0.00055
666.40000	0.09303	0.00020
666.44000	0.09542	0.00027
666.48000	0.09695	0.00053
666.52000	0.08885	0.00023
666.56000	0.08850	0.00040
666.60000	0.09415	0.00025
666.64000	0.09415	0.00025
666.68000	0.09700	0.00032
666.72000	0.09613	0.00033
666.76000	0.09588	0.00044
666.80000	0.09348	0.00042
666.84000	0.09119	0.00052
666.88000	0.09150	0.00031
666.92000	0.09537	0.00044
666.96000	0.09155	0.00033
667.00000	0.08956	0.00052
667.04000	0.09150	0.00038
667.08000	0.09608	0.00031
667.12000	0.09598	0.00032
667.16000	0.09618	0.00034
667.20000	0.09150	0.00038
667.24000	0.09608	0.00031
667.28000	0.09613	0.00040
667.32000	0.08855	0.00034
667.36000	0.09425	0.00034
667.40000	0.09216	0.00034
667.44000	0.09242	0.00039
667.48000	0.09914	0.00055
667.52000	0.09435	0.00050
667.56000	0.09817	0.00046
667.60000	0.09532	0.00056
667.64000	0.09226	0.00033
667.68000	0.09639	0.00038
667.72000	0.09252	0.00038
667.76000	0.09216	0.00034
667.80000	0.09231	0.00031
667.84000	0.09532	0.00051
667.88000	0.09613	0.00046
667.92000	0.09435	0.00031
667.96000	0.08946	0.00044
668.00000	0.09425	0.00034
668.04000	0.09420	0.00034
668.08000	0.09440	0.00036
668.12000	0.09165	0.00025
668.16000	0.09420	0.00041
668.20000	0.09618	0.00041
668.24000	0.09791	0.00031
668.28000	0.09802	0.00032
668.32000	0.09328	0.00046
668.36000	0.09328	0.00040
668.40000	0.08946	0.00044
668.44000	0.08829	0.00042
668.48000	0.09145	0.00048
668.52000	0.09425	0.00025
668.56000	0.09216	0.00034
668.60000	0.09338	0.00042
668.64000	0.09338	0.00027
668.68000	0.09053	0.00040
668.72000	0.09033	0.00053
668.76000	0.09160	0.00025
668.80000	0.08768	0.00040
668.84000	0.08768	0.00033
668.88000	0.08946	0.00044
668.92000	0.08956	0.00034
668.96000	0.09410	0.00051
669.00000	0.08773	0.00020
669.04000	0.09043	0.00036
669.08000	0.09445	0.00039
669.12000	0.09242	0.00056
669.16000	0.09236	0.00036
669.20000	0.09247	0.00048
669.24000	0.09236	0.00027
669.28000	0.09511	0.00040
669.32000	0.09715	0.00040
669.36000	0.09420	0.00041
669.40000	0.09155	0.00046
669.44000	0.08931	0.00042
669.48000	0.09226	0.00040
669.52000	0.09226	0.00023
669.56000	0.09074	0.00060
669.60000	0.09720	0.00047
669.64000	0.09043	0.00027
669.68000	0.09048	0.00044
669.72000	0.09425	0.00041
669.76000	0.09328	0.00046
669.80000	0.09506	0.00044
669.84000	0.09491	0.00036
669.88000	0.09608	0.00044
669.92000	0.08763	0.00034
669.96000	0.09603	0.00042
670.00000	0.09613	0.00033
670.04000	0.09598	0.00068
670.08000	0.09552	0.00042
670.12000	0.09501	0.00048
670.16000	0.09552	0.00042
670.20000	0.09649	0.00023
670.24000	0.09914	0.00050
670.28000	0.10015	0.00031
670.32000	0.09028	0.00044
670.36000	0.09700	0.00046
670.40000	0.09705	0.00048
670.44000	0.09725	0.00041
670.48000	0.09603	0.00042
670.52000	0.10357	0.00042
670.56000	0.09613	0.00033
670.60000	0.09995	0.00055
670.64000	0.09695	0.00036
670.68000	0.10275	0.00046
670.72000	0.10255	0.00036
670.76000	0.10183	0.00041
670.80000	0.10550	0.00051
670.84000	0.10153	0.00048
670.88000	0.10469	0.00027
670.92000	0.10352	0.00050
670.96000	0.10458	0.00036
671.00000	0.10443	0.00025
671.04000	0.10270	0.00038
671.08000	0.10372	0.00044
671.12000	0.10733	0.00040
671.16000	0.10000	0.00042
671.20000	0.10744	0.00052
671.24000	0.10102	0.00015
671.28000	0.10077	0.00034
671.32000	0.10927	0.00042
671.36000	0.10189	0.00041
671.40000	0.10194	0.00051
671.44000	0.10942	0.00034
671.48000	0.10362	0.00039
671.52000	0.10275	0.00040
671.56000	0.10723	0.00048
671.60000	0.10749	0.00034
671.64000	0.10576	0.00038
671.68000	0.10464	0.00023
671.72000	0.10082	0.00034
671.76000	0.10082	0.00041
671.80000	0.10000	0.00042
671.84000	0.10178	0.00041
671.88000	0.10173	0.00065
671.92000	0.10194	0.00046
671.96000	0.10647	0.00041
672.00000	0.09522	0.00047
672.04000	0.09924	0.00025
672.08000	0.10082	0.00041
672.12000	0.09807	0.00015
672.16000	0.09705	0.00048
672.20000	0.09725	0.00041
672.24000	0.09909	0.00042
672.28000	0.09705	0.00036
672.32000	0.09909	0.00036
672.36000	0.09909	0.00036
672.40000	0.09710	0.00031
672.44000	0.09333	0.00031
672.48000	0.09303	0.00038
672.52000	0.09695	0.00048
672.56000	0.09618	0.00041
672.60000	0.09522	0.00065
672.64000	0.09231	0.00031
672.68000	0.09343	0.00046
672.72000	0.09343	0.00060
672.76000	0.09323	0.00041
672.80000	0.08778	0.00027
672.84000	0.09231	0.00044
672.88000	0.09058	0.00052
672.92000	0.09206	0.00023
672.96000	0.09303	0.00050
673.00000	0.09598	0.00039
673.04000	0.09532	0.00033
673.08000	0.09506	0.00050
673.12000	0.09410	0.00040
673.16000	0.09710	0.00044
673.20000	0.09221	0.00034
673.24000	0.09160	0.00025
673.28000	0.09343	0.00039
673.32000	0.09323	0.00047
673.36000	0.09308	0.00060
673.40000	0.09068	0.00041
673.44000	0.09226	0.00033
673.48000	0.08931	0.00027
673.52000	0.09613	0.00033
673.56000	0.09786	0.00046
673.60000	0.09318	0.00047
673.64000	0.09328	0.00033
673.68000	0.08855	0.00041
673.72000	0.09063	0.00047
673.76000	0.09328	0.00060
673.80000	0.09038	0.00039
673.84000	0.09048	0.00020
673.88000	0.09231	0.00031
673.92000	0.08783	0.00032
673.96000	0.08753	0.00041
674.00000	0.09328	0.00040
674.04000	0.08844	0.00044
674.08000	0.08483	0.00027
674.12000	0.09313	0.00034
674.16000	0.09048	0.00038
674.20000	0.09359	0.00033
674.24000	0.09343	0.00039
674.28000	0.08956	0.00034
674.32000	0.09231	0.00055
674.36000	0.09221	0.00025
674.40000	0.08967	0.00041
674.44000	0.09140	0.00039
674.48000	0.08661	0.00041
674.52000	0.09348	0.00058
674.56000	0.09333	0.00044
674.60000	0.09420	0.00034
674.64000	0.09145	0.00027
674.68000	0.09303	0.00044
674.72000	0.09150	0.00038
674.76000	0.09231	0.00020
674.80000	0.09338	0.00036
674.84000	0.09343	0.00068
674.88000	0.09236	0.00036
674.92000	0.09221	0.00034
674.96000	0.09221	0.00047
675.00000	0.09140	0.00046
675.04000	0.08753	0.00041
675.08000	0.08824	0.00020
675.12000	0.08834	0.00039
675.16000	0.09527	0.00041
675.20000	0.08916	0.00052
675.24000	0.09155	0.00040
675.28000	0.08946	0.00038
675.32000	0.09247	0.00042
675.36000	0.09522	0.00025
675.40000	0.09323	0.00034
675.44000	0.09333	0.00050
675.48000	0.08371	0.00027
675.52000	0.09068	0.00047
675.56000	0.09318	0.00041
675.60000	0.08763	0.00052
675.64000	0.08773	0.00038
675.68000	0.09618	0.00047
675.72000	0.09613	0.00033
675.76000	0.08860	0.00047
675.80000	0.09348	0.00042
675.84000	0.09155	0.00033
675.88000	0.08585	0.00036
675.92000	0.08794	0.00038
675.96000	0.08829	0.00036
676.00000	0.08855	0.00034
676.04000	0.09323	0.00047
676.08000	0.08564	0.00040
676.12000	0.08855	0.00057
676.16000	0.09048	0.00038
676.20000	0.08758	0.00025
676.24000	0.09328	0.00060
676.28000	0.08951	0.00040
676.32000	0.08967	0.00034
676.36000	0.09038	0.00056
676.40000	0.09247	0.00027
676.44000	0.09155	0.00033
676.48000	0.09145	0.00036
676.52000	0.09415	0.00047
676.56000	0.09221	0.00047
676.60000	0.09226	0.00033
676.64000	0.09257	0.00033
676.68000	0.09410	0.00023
676.72000	0.09119	0.00025
676.76000	0.09425	0.00061
676.80000	0.08783	0.00023
676.84000	0.09425	0.00025
676.88000	0.09226	0.00033
676.92000	0.09247	0.00048
676.96000	0.09140	0.00051
677.00000	0.09063	0.00052
677.04000	0.09140	0.00023
677.08000	0.09328	0.00051
677.12000	0.09165	0.00025
677.16000	0.08763	0.00025
677.20000	0.08753	0.00034
677.24000	0.09537	0.00044
677.28000	0.09522	0.00025
677.32000	0.08951	0.00046
677.36000	0.08870	0.00040
677.40000	0.09786	0.00033
677.44000	0.09231	0.00038
677.48000	0.09226	0.00065
677.52000	0.08753	0.00065
677.56000	0.09012	0.00034
677.60000	0.09216	0.00047
677.64000	0.09532	0.00040
677.68000	0.09236	0.00048
677.72000	0.09506	0.00038
677.76000	0.09231	0.00031
677.80000	0.09226	0.00056
677.84000	0.09348	0.00042
677.88000	0.09262	0.00057
677.92000	0.08931	0.00036
677.96000	0.08850	0.00033
678.00000	0.08982	0.00027
678.04000	0.09231	0.00038
678.08000	0.09231	0.00044
678.12000	0.09068	0.00061
678.16000	0.09160	0.00041
678.20000	0.09028	0.00038
678.24000	0.09231	0.00044
678.28000	0.09415	0.00047
678.32000	0.09074	0.00046
678.36000	0.09074	0.00033
678.40000	0.08951	0.00068
678.44000	0.09242	0.00039
678.48000	0.08921	0.00040
678.52000	0.09058	0.00057
678.56000	0.09221	0.00025
678.60000	0.08931	0.00027
678.64000	0.08676	0.00042
678.68000	0.08671	0.00055
678.72000	0.08783	0.00032
678.76000	0.09028	0.00038
678.80000	0.09527	0.00041
678.84000	0.09135	0.00042
678.88000	0.08967	0.00025
678.92000	0.09155	0.00033
678.96000	0.09140	0.00060
679.00000	0.08962	0.00047
679.04000	0.08951	0.00033
679.08000	0.09425	0.00047
679.12000	0.08554	0.00047
679.16000	0.09053	0.00033
679.20000	0.09140	0.00039
679.24000	0.09231	0.00044
679.28000	0.09211	0.00034
679.32000	0.09226	0.00033
679.36000	0.08865	0.00041
679.40000	0.09542	0.00042
679.44000	0.09216	0.00041
679.48000	0.09328	0.00033
679.52000	0.08778	0.00053
679.56000	0.08778	0.00042
679.60000	0.08203	0.00025
679.64000	0.09058	0.00041
679.68000	0.09236	0.00036
679.72000	0.09695	0.00062
679.76000	0.09140	0.00032
679.80000	0.09124	0.00051
679.84000	0.09135	0.00053
679.88000	0.09053	0.00040
679.92000	0.09145	0.00053
679.96000	0.08493	0.00033
680.00000	0.09710	0.00044
680.04000	0.09623	0.00034
680.08000	0.09527	0.00057
680.12000	0.08844	0.00038
680.16000	0.08839	0.00036
680.20000	0.08829	0.00027
680.24000	0.08748	0.00033
680.28000	0.08850	0.00040
680.32000	0.08834	0.00046
680.36000	0.09430	0.00033
680.40000	0.09425	0.00065
680.44000	0.09435	0.00050
680.48000	0.09079	0.00050
680.52000	0.09374	0.00041
680.56000	0.08946	0.00059
680.60000	0.08850	0.00046
680.64000	0.08274	0.00046
680.68000	0.08956	0.00052
680.72000	0.08921	0.00060
680.76000	0.08860	0.00041
680.80000	0.08570	0.00031
680.84000	0.08936	0.00039
680.88000	0.09430	0.00023
680.92000	0.08544	0.00051
680.96000	0.09216	0.00034
681.00000	0.08951	0.00033
681.04000	0.08962	0.00034
681.08000	0.09058	0.00034
681.12000	0.08972	0.00040
681.16000	0.09338	0.00036
681.20000	0.09028	0.00038
681.24000	0.09435	0.00020
681.28000	0.08860	0.00047
681.32000	0.08839	0.00036
681.36000	0.08651	0.00041
681.40000	0.09048	0.00038
681.44000	0.09247	0.00048
681.48000	0.09084	0.00048
681.52000	0.09511	0.00040
681.56000	0.09354	0.00038
681.60000	0.08570	0.00038
681.64000	0.08595	0.00023
681.68000	0.09430	0.00023
681.72000	0.09878	0.00041
681.76000	0.09053	0.00040
681.80000	0.09028	0.00038
681.84000	0.08585	0.00027
681.88000	0.09323	0.00034
681.92000	0.09313	0.00047
681.96000	0.08855	0.00034
682.00000	0.08773	0.00031
682.04000	0.10077	0.00025
682.08000	0.08753	0.00047
682.12000	0.09211	0.00025
682.16000	0.09221	0.00034
682.20000	0.09257	0.00046
682.24000	0.09028	0.00038
682.28000	0.09226	0.00046
682.32000	0.08850	0.00040
682.36000	0.09043	0.00066
682.40000	0.09145	0.00036
682.44000	0.08951	0.00040
682.48000	0.09720	0.00057
682.52000	0.09710	0.00044
682.56000	0.08580	0.00046
682.60000	0.08870	0.00046
682.64000	0.09608	0.00038
682.68000	0.09328	0.00068
682.72000	0.09160	0.00041
682.76000	0.08865	0.00052
682.80000	0.08844	0.00031
682.84000	0.09231	0.00044
682.88000	0.09221	0.00047
682.92000	0.08834	0.00032
682.96000	0.09048	0.00055
683.00000	0.09318	0.00057
683.04000	0.08824	0.00038
683.08000	0.09150	0.00038
683.12000	0.09145	0.00027
683.16000	0.09242	0.00039
683.20000	0.08870	0.00040
683.24000	0.09160	0.00041
683.28000	0.08962	0.00047
683.32000	0.09048	0.00031
683.36000	0.09140	0.00039
683.40000	0.09140	0.00032
683.44000	0.09405	0.00031
683.48000	0.08962	0.00047
683.52000	0.09170	0.00034
683.56000	0.09074	0.00040
683.60000	0.09445	0.00046
683.64000	0.08875	0.00050
683.68000	0.08855	0.00041
683.72000	0.09053	0.00040
683.76000	0.08956	0.00047
683.80000	0.08468	0.00031
683.84000	0.08855	0.00034
683.88000	0.08458	0.00041
683.92000	0.09517	0.00065
683.96000	0.08931	0.00048
684.00000	0.08962	0.00034
684.04000	0.09410	0.00033
684.08000	0.09593	0.00036
684.12000	0.08850	0.00046
684.16000	0.08783	1.38778E-17
684.20000	0.09354	0.00059
684.24000	0.09425	0.00041
684.28000	0.09420	0.00052
684.32000	0.09338	0.00048
684.36000	0.09517	0.00047
684.40000	0.09440	0.00036
684.44000	0.09323	0.00041
684.48000	0.09292	0.00023
684.52000	0.08376	0.00060
684.56000	0.08391	0.00033
684.60000	0.08758	0.00034
684.64000	0.08585	0.00036
684.68000	0.08967	0.00052
684.72000	0.09435	0.00038
684.76000	0.09725	0.00052
684.80000	0.09425	0.00034
684.84000	0.08931	0.00036
684.88000	0.08946	0.00044
684.92000	0.09430	0.00023
684.96000	0.09410	0.00023
685.00000	0.09527	0.00052
685.04000	0.09155	0.00040
685.08000	0.08473	0.00036
685.12000	0.09242	0.00039
685.16000	0.09231	0.00038
685.20000	0.09155	0.00033
685.24000	0.09236	0.00036
685.28000	0.08956	0.00034
685.32000	0.08834	0.00046
685.36000	0.09135	0.00048
685.40000	0.09588	0.00038
685.44000	0.08844	0.00050
685.48000	0.08850	0.00046
685.52000	0.09242	0.00039
685.56000	0.09496	0.00051
685.60000	0.08844	0.00044
685.64000	0.08855	0.00047
685.68000	0.08768	0.00040
685.72000	0.09623	0.00034
685.76000	0.09598	0.00060
685.80000	0.09537	0.00031
685.84000	0.09221	0.00052
685.88000	0.09028	0.00038
685.92000	0.09216	0.00034
685.96000	0.09231	0.00031
686.00000	0.08850	0.00051
686.04000	0.08860	0.00047
686.08000	0.09685	0.00023
686.12000	0.09124	0.00046
686.16000	0.09343	0.00039
686.20000	0.09522	0.00052
686.24000	0.09527	0.00041
686.28000	0.08850	0.00051
686.32000	0.09410	0.00033
686.36000	0.09410	0.00033
686.40000	0.09313	0.00025
686.44000	0.09028	0.00071
686.48000	0.09242	0.00046
686.52000	0.10082	0.00034
686.56000	0.09394	0.00039
686.60000	0.09140	0.00039
686.64000	0.09150	0.00031
686.68000	0.08839	0.00042
686.72000	0.09160	0.00047
686.76000	0.08788	0.00042
686.80000	0.09068	0.00057
686.84000	0.09058	0.00057
686.88000	0.09150	0.00038
686.92000	0.09150	0.00038
686.96000	0.08967	0.00034
687.00000	0.08850	0.00046
687.04000	0.09150	0.00055
687.08000	0.09888	0.00056
687.12000	0.09420	0.00041
687.16000	0.08972	0.00040
687.20000	0.09333	0.00044
687.24000	0.09343	0.00023
687.28000	0.08956	0.00041
687.32000	0.09160	0.00025
687.36000	0.08865	0.00025
687.40000	0.09817	0.00023
687.44000	0.09033	0.00036
687.48000	0.08676	0.00053
687.52000	0.08671	0.00044
687.56000	0.08488	0.00050
687.60000	0.09058	0.00047
687.64000	0.08967	0.00034
687.68000	0.09043	0.00042
687.72000	0.09150	0.00020
687.76000	0.09440	0.00036
687.80000	0.08967	0.00034
687.84000	0.08946	0.00038
687.88000	0.08794	0.00031
687.92000	0.09613	0.00033
687.96000	0.08483	0.00042
688.00000	0.08967	0.00061
688.04000	0.09420	0.00041
688.08000	0.08758	0.00034
688.12000	0.08783	0.00046
688.16000	0.09033	0.00042
688.20000	0.08651	0.00047
688.24000	0.09053	0.00076
688.28000	0.09135	0.00036
688.32000	0.09333	0.00044
688.36000	0.09348	0.00036
688.40000	0.09328	0.00046
688.44000	0.08763	0.00034
688.48000	0.09247	0.00036
688.52000	0.08941	0.00042
688.56000	0.09231	0.00031
688.60000	0.08962	0.00052
688.64000	0.09252	0.00055
688.68000	0.09033	0.00042
688.72000	0.09074	0.00040
688.76000	0.08967	0.00034
688.80000	0.09415	0.00041
688.84000	0.09318	0.00052
688.88000	0.09552	0.00015
688.92000	0.09048	0.00050
688.96000	0.08931	0.00042
689.00000	0.08967	0.00034
689.04000	0.09231	0.00038
689.08000	0.09221	0.00052
689.12000	0.08931	0.00042
689.16000	0.08855	0.00025
689.20000	0.09236	0.00036
689.24000	0.09236	0.00036
689.28000	0.09236	0.00042
689.32000	0.09226	0.00040
689.36000	0.08962	0.00041
689.40000	0.09318	0.00041
689.44000	0.09435	0.00044
689.48000	0.08778	0.00027
689.52000	0.09603	0.00048
689.56000	0.08666	0.00033
689.60000	0.08666	0.00040
689.64000	0.08951	0.00023
689.68000	0.09023	0.00040
689.72000	0.09343	0.00032
689.76000	0.08778	0.00048
689.80000	0.08956	0.00041
689.84000	0.09333	0.00044
689.88000	0.09318	0.00034
689.92000	0.08946	0.00044
689.96000	0.08982	0.00015
690.00000	0.09221	0.00034
690.04000	0.09629	0.00025
690.08000	0.09333	0.00044
690.12000	0.09028	0.00038
690.16000	0.09216	0.00034
690.20000	0.09231	0.00038
690.24000	0.09165	0.00034
690.28000	0.09170	0.00041
690.32000	0.09160	0.00041
690.36000	0.09410	0.00046
690.40000	0.09415	0.00052
690.44000	0.09415	0.00041
690.48000	0.09425	0.00025
690.52000	0.09226	0.00033
690.56000	0.09430	0.00040
690.60000	0.08839	0.00027
690.64000	0.08575	0.00048
690.68000	0.09038	0.00046
690.72000	0.09318	0.00034
690.76000	0.09318	0.00047
690.80000	0.09023	0.00051
690.84000	0.09226	0.00040
690.88000	0.09532	0.00046
690.92000	0.09028	0.00031
690.96000	0.09140	0.00046
691.00000	0.09160	0.00034
691.04000	0.09028	0.00044
691.08000	0.09023	0.00040
691.12000	0.09206	0.00040
691.16000	0.09216	0.00034
691.20000	0.09511	0.00046
691.24000	0.08936	0.00023
691.28000	0.09338	0.00053
691.32000	0.10082	0.00034
691.36000	0.10082	0.00034
691.40000	0.08860	0.00041
691.44000	0.08844	0.00031
691.48000	0.08768	0.00033
691.52000	0.09537	0.00044
691.56000	0.09445	0.00039
691.60000	0.09338	0.00036
691.64000	0.09308	0.00040
691.68000	0.09236	0.00036
691.72000	0.08941	0.00036
691.76000	0.08768	0.00040
691.80000	0.09160	0.00025
691.84000	0.09323	0.00052
691.88000	0.09323	0.00041
691.92000	0.09354	0.00038
691.96000	0.09359	0.00051
692.00000	0.08951	0.00051
692.04000	0.09517	0.00025
692.08000	0.08931	0.00036
692.12000	0.09155	0.00040
692.16000	0.09420	0.00034
692.20000	0.09822	0.00052
692.24000	0.09797	0.00042
692.28000	0.09522	0.00052
692.32000	0.09038	0.00032
692.36000	0.08829	0.00036
692.40000	0.09247	0.00042
692.44000	0.09155	0.00046
692.48000	0.09425	0.00052
692.52000	0.08850	0.00033
692.56000	0.08844	0.00038
692.60000	0.09705	0.00027
692.64000	0.09430	0.00046
692.68000	0.09130	0.00055
692.72000	0.09231	0.00031
692.76000	0.08839	0.00036
692.80000	0.09323	0.00034
692.84000	0.09338	0.00048
692.88000	0.08778	0.00027
692.92000	0.09236	0.00042
692.96000	0.09501	0.00036
693.00000	0.09053	0.00040
693.04000	0.08763	0.00034
693.08000	0.08860	0.00041
693.12000	0.08834	0.00046
693.16000	0.08809	0.00025
693.20000	0.08951	0.00040
693.24000	0.08753	0.00034
693.28000	0.09140	0.00051
693.32000	0.09135	0.00036
693.36000	0.09333	0.00064
693.40000	0.09155	0.00046
693.44000	0.09155	0.00040
693.48000	0.08692	0.00038
693.52000	0.08488	0.00031
693.56000	0.09048	0.00044
693.60000	0.09506	0.00059
693.64000	0.08865	0.00041
693.68000	0.09705	0.00048
693.72000	0.09690	0.00031
693.76000	0.08748	0.00040
693.80000	0.08946	0.00044
693.84000	0.08839	0.00036
693.88000	0.09354	0.00055
693.92000	0.08936	0.00046
693.96000	0.09160	0.00025
694.00000	0.08962	0.00034
694.04000	0.08967	0.00052
694.08000	0.09511	0.00033
694.12000	0.08951	0.00040
694.16000	0.09323	0.00025
694.20000	0.09221	0.00034
694.24000	0.08585	0.00027
694.28000	0.09410	0.00023
694.32000	0.09425	0.00034
694.36000	0.08956	0.00025
694.40000	0.09068	0.00034
694.44000	0.09618	0.00034
694.48000	0.09043	0.00036
694.52000	0.09048	0.00038
694.56000	0.09705	0.00048
694.60000	0.09730	0.00047
694.64000	0.09522	0.00025
694.68000	0.09231	0.00020
694.72000	0.09221	0.00034
694.76000	0.09216	0.00034
694.80000	0.09715	0.00040
694.84000	0.09415	0.00041
694.88000	0.09517	0.00025
694.92000	0.09517	0.00025
694.96000	0.09043	0.00053
695.00000	0.09690	0.00038
695.04000	0.09135	0.00027
695.08000	0.09725	0.00057
695.12000	0.09033	0.00027
695.16000	0.09420	0.00034
695.20000	0.09425	0.00041
695.24000	0.09389	0.00036
695.28000	0.09629	0.00041
695.32000	0.09700	0.00039
695.36000	0.09496	0.00046
695.40000	0.09415	0.00047
695.44000	0.09333	0.00038
695.48000	0.09323	0.00034
695.52000	0.09369	0.00034
695.56000	0.08941	0.00036
695.60000	0.08865	0.00041
695.64000	0.09150	0.00038
695.68000	0.09506	0.00050
695.72000	0.09435	0.00038
695.76000	0.09506	0.00055
695.80000	0.09517	0.00041
695.84000	0.09517	0.00057
695.88000	0.09527	0.00034
695.92000	0.09430	0.00046
695.96000	0.08799	0.00033
696.00000	0.08753	0.00041
696.04000	0.08773	0.00031
696.08000	0.08763	0.00025
696.12000	0.09155	0.00033
696.16000	0.09883	0.00041
696.20000	0.09216	0.00041
696.24000	0.08946	0.00044
696.28000	0.09333	0.00038
696.32000	0.08962	0.00034
696.36000	0.09221	0.00034
696.40000	0.09216	0.00034
696.44000	0.09705	0.00048
696.48000	0.09430	0.00040
696.52000	0.09023	0.00033
696.56000	0.09216	0.00047
696.60000	0.09343	0.00046
696.64000	0.09613	0.00033
696.68000	0.09613	0.00040
696.72000	0.09812	0.00050
696.76000	0.09242	0.00046
696.80000	0.09420	0.00025
696.84000	0.09420	0.00034
696.88000	0.09028	0.00038
696.92000	0.09226	0.00033
696.96000	0.09211	0.00052
697.00000	0.09741	0.00044
697.04000	0.09058	0.00025
697.08000	0.09033	0.00058
697.12000	0.09338	0.00053
697.16000	0.09150	0.00044
697.20000	0.09990	0.00033
697.24000	0.08926	0.00044
697.28000	0.08946	0.00031
697.32000	0.09929	0.00041
697.36000	0.09226	0.00033
697.40000	0.08763	0.00057
697.44000	0.09511	0.00046
697.48000	0.09415	0.00047
697.52000	0.09415	0.00034
697.56000	0.09450	0.00036
697.60000	0.09145	0.00048
697.64000	0.08951	0.00046
697.68000	0.08702	0.00034
697.72000	0.09333	0.00044
697.76000	0.09216	0.00041
697.80000	0.08763	0.00041
697.84000	0.08763	0.00034
697.88000	0.09435	0.00031
697.92000	0.08844	0.00044
697.96000	0.09517	0.00061
698.00000	0.08931	0.00048
698.04000	0.08977	0.00020
698.08000	0.09063	0.00052
698.12000	0.09440	0.00042
698.16000	0.09445	0.00039
698.20000	0.09058	0.00052
698.24000	0.09058	0.00057
698.28000	0.08666	0.00046
698.32000	0.08829	0.00053
698.36000	0.09043	0.00042
698.40000	0.09226	0.00033
698.44000	0.09236	0.00036
698.48000	0.09506	0.00031
698.52000	0.09165	0.00034
698.56000	0.09048	0.00055
698.60000	0.09695	0.00058
698.64000	0.09236	0.00036
698.68000	0.10021	0.00040
698.72000	0.09135	0.00042
698.76000	0.09160	0.00025
698.80000	0.08585	0.00027
698.84000	0.09155	0.00040
698.88000	0.09608	0.00031
698.92000	0.08967	0.00052
698.96000	0.09511	0.00051
699.00000	0.09038	0.00046
699.04000	0.09058	0.00052
699.08000	0.08962	0.00041
699.12000	0.09058	0.00041
699.16000	0.09058	0.00061
699.20000	0.09150	0.00031
699.24000	0.09216	0.00034
699.28000	0.09710	0.00050
699.32000	0.09700	0.00032
699.36000	0.09435	0.00044
699.40000	0.09705	0.00042
699.44000	0.09236	0.00036
699.48000	0.09226	0.00033
699.52000	0.09033	0.00042
699.56000	0.09445	0.00032
699.60000	0.09522	0.00041
699.64000	0.09522	0.00052
699.68000	0.09206	0.00033
699.72000	0.09018	0.00034
699.76000	0.09247	0.00066
699.80000	0.09023	0.00040
699.84000	0.09247	0.00042
699.88000	0.09145	0.00036
699.92000	0.09135	0.00048
699.96000	0.09440	0.00042
