Waveleght	Intensity	Error
580.43	0.11298	0.00041
580.48	0.10255	0.00027
580.52	0.10535	0.00047
580.56	0.10555	0.00068
580.6	0.1054	0.00025
580.64	0.1056	0.00042
580.68	0.10896	0.00052
580.72	0.10815	0.00042
580.76	0.10835	0.0006
580.8	0.10372	0.0005
580.84	0.10372	0.00038
580.88	0.1083	0.00038
580.92	0.1001	0.00036
580.95	0.10749	0.00034
581.0	0.10647	0.00052
581.04	0.10535	0.00025
581.07	0.10382	0.00034
581.12	0.10352	0.0002
581.16	0.1026	0.00046
581.19	0.10835	0.00046
581.24	0.10647	0.00034
581.28	0.1001	0.00048
581.31	0.1029	0.00034
581.36	0.11125	0.00046
581.4	0.10275	0.0006
581.43	0.10285	0.00057
581.48	0.11039	0.00051
581.52	0.10906	0.0004
581.56	0.10469	0.00048
581.6	0.10906	0.00033
581.64	0.11105	0.00047
581.68	0.10632	0.0004
581.72	0.10642	0.00025
581.76	0.11029	0.00036
581.8	0.10728	0.00038
581.84	0.10912	0.00038
581.88	0.10621	0.00048
581.92	0.11013	0.00044
581.95	0.10295	0.00033
582.0	0.10769	0.00046
582.04	0.10759	0.00044
582.07	0.10952	0.00034
582.12	0.10927	0.00066
582.16	0.10713	0.00048
582.19	0.10504	0.00031
582.24	0.10825	0.00042
582.28	0.10448	0.00033
582.31	0.10458	0.00027
582.36	0.10912	0.00044
582.4	0.10555	0.00044
582.43	0.10947	0.00052
582.48	0.10377	0.00023
582.52	0.11232	0.00053
582.56	0.10357	0.00048
582.6	0.10382	0.00025
582.64	0.10759	0.00038
582.68	0.0997	0.00051
582.72	0.10927	0.00062
582.76	0.10387	0.00041
582.8	0.10744	0.00041
582.84	0.10372	0.00044
582.88	0.10377	0.0004
582.92	0.10377	0.00033
582.95	0.1053	0.00033
583.0	0.10362	0.00046
583.04	0.10922	0.00032
583.07	0.10545	0.00047
583.12	0.10637	0.00041
583.16	0.10173	0.00051
583.19	0.10209	0.00032
583.24	0.10448	0.00033
583.28	0.10438	0.00041
583.31	0.10657	0.0005
583.36	0.10265	0.00027
583.4	0.10285	0.00057
583.43	0.10565	0.00051
583.48	0.10769	0.00051
583.52	0.10733	0.00046
583.56	0.10194	0.0004
583.6	0.10464	0.00046
583.64	0.10469	0.00048
583.68	0.10469	0.00036
583.72	0.10637	0.00025
583.76	0.10285	0.00047
583.8	0.10255	0.00027
583.84	0.1083	0.00044
583.88	0.10545	0.00047
583.92	0.10306	0.00042
583.95	0.10392	0.00047
584.0	0.1057	0.00048
584.04	0.09903	0.00032
584.07	0.09898	0.00062
584.12	0.10087	0.00025
584.16	0.10652	0.00023
584.19	0.10372	0.0005
584.24	0.10189	0.00041
584.28	0.10464	0.00039
584.31	0.10896	0.00047
584.36	0.10392	0.00041
584.4	0.10408	0.00042
584.43	0.10657	0.00038
584.48	0.10932	0.0002
584.52	0.10657	0.00044
584.56	0.10377	0.00046
584.6	0.09914	0.00038
584.64	0.10825	0.00053
584.68	0.10815	0.00027
584.72	0.10637	0.00052
584.76	0.10565	0.00039
584.8	0.10642	0.00034
584.84	0.10738	0.00034
584.88	0.10728	0.00038
584.92	0.10295	0.00051
584.95	0.1028	0.00034
585.0	0.10367	0.00036
585.04	0.10555	0.00038
585.07	0.10581	0.0004
585.12	0.10464	0.00032
585.16	0.11044	0.00025
585.19	0.10357	0.00042
585.24	0.10275	0.00023
585.28	0.1028	0.00041
585.31	0.10642	0.00025
585.36	0.10917	0.00048
585.4	0.10352	0.00031
585.43	0.1085	0.00047
585.48	0.10845	0.00034
585.52	0.10576	0.00038
585.56	0.1052	0.00027
585.6	0.10723	0.00036
585.64	0.11212	0.00033
585.68	0.10285	0.00052
585.72	0.10917	0.00048
585.76	0.10275	0.00023
585.8	0.1027	0.00068
585.84	0.10168	0.00044
585.88	0.10168	0.00044
585.92	0.10525	0.00031
585.95	0.09715	0.00051
586.0	0.10647	0.00041
586.04	0.10652	0.0004
586.07	0.10545	0.00052
586.12	0.1057	0.00048
586.16	0.10555	0.00055
586.19	0.10285	0.00041
586.24	0.1056	0.00053
586.28	0.11136	0.0005
586.31	0.10825	0.00042
586.36	0.1026	0.00023
586.4	0.10545	0.00034
586.43	0.10545	0.00061
586.48	0.10469	0.00036
586.52	0.10856	0.00033
586.56	0.10642	0.00047
586.6	0.10815	0.00027
586.64	0.11029	0.00042
586.68	0.10922	0.00039
586.72	0.1	0.00042
586.76	0.0999	0.00046
586.8	0.10637	0.00052
586.84	0.10906	0.00033
586.88	0.10464	0.00032
586.92	0.10494	0.00057
586.95	0.1027	0.00031
587.0	0.11029	0.00042
587.04	0.11029	0.00015
587.07	0.11151	0.00041
587.12	0.10667	0.00039
587.16	0.11421	0.00059
587.19	0.1083	0.00031
587.24	0.10713	0.00062
587.28	0.10453	0.00031
587.31	0.10464	0.00023
587.36	0.10637	0.00047
587.4	0.10632	0.00033
587.43	0.11212	0.0004
587.48	0.10759	0.00031
587.52	0.11222	0.00027
587.56	0.10469	0.00036
587.6	0.11227	0.00032
587.64	0.11217	0.0002
587.68	0.10341	0.00034
587.72	0.11013	0.00044
587.76	0.11024	0.00039
587.8	0.10565	0.00039
587.84	0.10443	0.00034
587.88	0.10749	0.00025
587.92	0.10744	0.00034
587.95	0.10754	0.00033
588.0	0.10825	0.00053
588.04	0.1053	0.00046
588.07	0.10723	0.00036
588.12	0.10178	0.00047
588.16	0.10917	0.00048
588.19	0.10942	0.00041
588.24	0.10912	0.00031
588.28	0.10754	0.00046
588.31	0.1028	0.00047
588.36	0.11309	0.00025
588.4	0.1054	0.00041
588.43	0.10173	0.00046
588.48	0.09995	0.00038
588.52	0.09995	0.0005
588.56	0.10458	0.00042
588.6	0.10265	0.00027
588.64	0.1055	0.00051
588.68	0.10565	0.00039
588.72	0.10754	0.00046
588.76	0.09914	0.0005
588.8	0.09903	0.00039
588.84	0.10178	0.00041
588.88	0.10738	0.00041
588.92	0.10545	0.00041
588.95	0.10912	0.00055
589.0	0.10087	0.00041
589.04	0.10387	0.00034
589.07	0.10357	0.00048
589.12	0.10387	0.00041
589.16	0.10387	0.00041
589.19	0.10728	0.00044
589.24	0.10464	0.00064
589.28	0.10738	0.00061
589.31	0.10922	0.00032
589.36	0.10377	0.00051
589.4	0.10362	0.00039
589.43	0.10922	0.00046
589.48	0.09588	0.00038
589.52	0.10927	0.00058
589.56	0.10733	0.00046
589.6	0.10362	0.00046
589.64	0.10845	0.00041
589.68	0.1084	0.00034
589.72	0.10015	0.00055
589.76	0.10402	0.00031
589.8	0.09883	0.00047
589.84	0.10718	0.00032
589.88	0.10927	0.00027
589.92	0.10443	0.00057
589.95	0.1029	0.00034
590.0	0.1025	0.00044
590.04	0.11197	0.00041
590.07	0.10448	0.0004
590.12	0.1084	0.00052
590.16	0.10458	0.00027
590.19	0.10728	0.0002
590.24	0.1055	0.0004
590.28	0.10565	0.00046
590.31	0.10367	0.00042
590.36	0.11054	0.00025
590.4	0.1081	0.00031
590.43	0.10433	0.00025
590.48	0.10637	0.00034
590.52	0.11136	0.00031
590.56	0.1083	0.00038
590.6	0.10845	0.00041
590.64	0.10581	0.00056
590.68	0.10947	0.00034
590.72	0.10102	0.00048
590.76	0.11034	0.0005
590.8	0.09888	0.00033
590.84	0.10387	0.00034
590.88	0.10357	0.00036
590.92	0.09695	0.00015
590.95	0.10637	0.00041
591.0	0.10637	0.00034
591.04	0.10738	0.00052
591.07	0.10514	0.00046
591.12	0.10275	0.00033
591.16	0.1027	0.00031
591.19	0.10061	0.00042
591.24	0.10545	0.00041
591.28	0.11034	0.00038
591.31	0.10469	0.00036
591.36	0.10932	0.0005
591.4	0.10642	0.00034
591.43	0.10723	0.00036
591.48	0.10749	0.00034
591.52	0.10922	0.00051
591.56	0.10616	0.0
591.6	0.10087	0.00034
591.64	0.10209	0.00039
591.68	0.10555	0.0005
591.72	0.10458	0.00036
591.76	0.10474	0.00031
591.8	0.1112	0.00048
591.84	0.11212	0.00023
591.88	0.1084	0.00047
591.92	0.10754	0.00051
591.95	0.10275	0.00046
592.0	0.10626	0.00031
592.04	0.10504	0.00093
592.07	0.10453	0.00031
592.12	0.10255	0.00027
592.16	0.10749	0.00041
592.19	0.10199	0.00038
592.24	0.10565	0.0006
592.28	0.10733	0.0004
592.31	0.10464	0.00032
592.36	0.10438	0.00041
592.4	0.10835	0.0006
592.43	0.10845	0.00034
592.48	0.10158	0.00046
592.52	0.1026	0.00039
592.56	0.10275	0.00046
592.6	0.11029	0.00042
592.64	0.11018	0.00053
592.68	0.1083	0.0005
592.72	0.10377	0.00046
592.76	0.10295	0.0004
592.8	0.10932	0.0005
592.84	0.1056	0.00036
592.88	0.10199	0.00038
592.92	0.10357	0.00048
592.95	0.10377	0.00056
593.0	0.10341	0.00052
593.04	0.10647	0.00041
593.07	0.10535	0.00041
593.12	0.10988	0.00046
593.16	0.10708	0.00055
593.19	0.10458	0.00053
593.24	0.10464	0.00039
593.28	0.10204	0.00036
593.31	0.10372	0.00055
593.36	0.1054	0.00034
593.4	0.10759	0.00038
593.43	0.10352	0.00044
593.48	0.10632	0.00051
593.52	0.10642	0.00025
593.56	0.10611	0.00053
593.6	0.09985	0.00025
593.64	0.10637	0.00034
593.68	0.10805	0.00046
593.72	0.10504	0.00044
593.76	0.10545	0.00052
593.8	0.10749	0.00041
593.84	0.10728	0.00044
593.88	0.10387	0.00065
593.92	0.09878	0.00052
593.95	0.10464	0.00023
594.0	0.10637	0.00052
594.04	0.10825	0.00036
594.07	0.09629	0.00047
594.12	0.09639	0.00031
594.16	0.10535	0.00034
594.19	0.10535	0.00052
594.24	0.10357	0.00042
594.28	0.09786	0.0004
594.31	0.10372	0.00031
594.36	0.1082	0.00039
594.4	0.10438	0.00034
594.43	0.10448	0.00033
594.48	0.10357	0.00042
594.52	0.10754	0.00033
594.56	0.10723	0.00036
594.6	0.10484	0.00041
594.64	0.1054	0.00047
594.68	0.10362	0.00032
594.72	0.10387	0.00034
594.76	0.10301	0.00031
594.8	0.10667	0.00046
594.84	0.10448	0.00033
594.88	0.10275	0.00046
594.92	0.10652	0.00023
594.95	0.1055	0.00051
595.0	0.1053	0.0004
595.04	0.10565	0.00039
595.07	0.10367	0.00036
595.12	0.11008	0.00046
595.16	0.10922	0.00032
595.19	0.10912	0.00044
595.24	0.10545	0.00052
595.28	0.10275	0.00046
595.31	0.10285	0.00047
595.36	0.09995	0.00044
595.4	0.10647	0.00034
595.43	0.10204	0.00074
595.48	0.1053	0.00051
595.52	0.10917	0.00042
595.56	0.10479	0.00033
595.6	0.10469	0.00015
595.64	0.10377	0.0004
595.68	0.10906	0.00033
595.72	0.10453	0.00031
595.76	0.11044	0.00025
595.8	0.10275	0.00023
595.84	0.11329	0.00056
595.88	0.11309	0.00047
595.92	0.10367	0.00027
595.95	0.10453	0.0002
596.0	0.10769	0.00039
596.04	0.10372	0.00044
596.07	0.1054	0.00047
596.12	0.10626	0.0002
596.16	0.09903	0.00046
596.19	0.09914	0.0005
596.24	0.10448	0.00033
596.28	0.10453	0.00038
596.31	0.1057	0.00042
596.36	0.10555	0.0005
596.4	0.10464	0.00046
596.43	0.10942	0.00047
596.48	0.10927	0.00036
596.52	0.11202	0.00052
596.56	0.1111	0.0004
596.6	0.10377	0.00033
596.64	0.1081	0.00031
596.68	0.11039	0.00033
596.72	0.111	0.00041
596.76	0.10352	0.00055
596.8	0.10392	0.00052
596.84	0.10927	0.00042
596.88	0.11029	0.00053
596.92	0.10657	0.00038
596.95	0.10764	0.00048
597.0	0.1057	0.00042
597.04	0.10392	0.00025
597.07	0.10352	0.00038
597.12	0.10382	0.00041
597.16	0.10825	0.00053
597.19	0.10367	0.00042
597.24	0.10464	0.00023
597.28	0.10357	0.00036
597.31	0.10005	0.00046
597.36	0.1001	0.00042
597.4	0.10367	0.00027
597.43	0.11044	0.00041
597.48	0.10744	0.00047
597.52	0.10632	0.00033
597.56	0.10738	0.00041
597.6	0.09985	0.00041
597.64	0.10825	0.00036
597.68	0.1084	0.00034
597.72	0.1028	0.00041
597.76	0.1055	0.00046
597.8	0.10657	0.00038
597.84	0.10173	0.00046
597.88	0.09903	0.00046
597.92	0.10194	0.00046
597.95	0.10168	0.0005
598.0	0.10652	0.00023
598.04	0.10464	0.00023
598.07	0.10845	0.00034
598.12	0.10632	0.0006
598.16	0.10448	0.00033
598.19	0.11095	0.00034
598.24	0.1111	0.00056
598.28	0.1026	0.00032
598.31	0.10937	0.00046
598.36	0.10178	0.00034
598.4	0.10738	0.00034
598.43	0.09903	0.00023
598.48	0.09893	0.00038
598.52	0.10957	0.00046
598.56	0.10947	0.00052
598.6	0.10723	0.00053
598.64	0.10275	0.00023
598.68	0.10733	0.0004
598.72	0.1113	0.00066
598.76	0.11115	0.00055
598.8	0.10565	0.00032
598.84	0.1053	0.0004
598.88	0.10458	0.00027
598.92	0.1055	0.00046
598.95	0.10453	0.00044
599.0	0.10662	0.00053
599.04	0.10632	0.00051
599.07	0.10092	0.00023
599.12	0.10632	0.00023
599.16	0.10632	0.00051
599.19	0.0998	0.00025
599.24	0.11003	0.00025
599.28	0.10922	0.00068
599.31	0.10626	0.00031
599.36	0.11304	0.00034
599.4	0.11151	0.00057
599.43	0.11136	0.00044
599.48	0.10479	0.00023
599.52	0.10647	0.00047
599.56	0.10464	0.00039
599.6	0.10738	0.00052
599.64	0.10341	0.00047
599.68	0.10469	0.00027
599.72	0.10453	0.00038
599.76	0.10749	0.00047
599.8	0.10469	0.00027
599.84	0.10173	0.0004
599.88	0.10626	0.00044
599.92	0.10382	0.00041
599.95	0.10173	0.00051
600.0	0.10514	0.00046
600.04	0.10545	0.00061
600.07	0.10754	0.00056
600.12	0.10545	0.00057
600.16	0.10453	0.00031
600.19	0.10637	0.00025
600.24	0.10163	0.00036
600.28	0.10464	0.00032
600.31	0.10479	0.00051
600.36	0.1028	0.00041
600.4	0.10443	0.00025
600.43	0.10372	0.00055
600.48	0.10372	0.00031
600.52	0.11034	0.00031
600.56	0.10744	0.00034
600.6	0.10397	0.00033
600.64	0.10377	0.00023
600.68	0.10718	0.00046
600.72	0.10642	0.00057
600.76	0.10377	0.00023
600.8	0.10357	0.00042
600.84	0.10525	0.00031
600.88	0.09909	0.00042
600.92	0.09903	0.00046
600.95	0.10382	0.00057
601.0	0.10576	0.00038
601.04	0.11787	0.00056
601.07	0.10906	0.00046
601.12	0.10555	0.00044
601.16	0.11049	0.00025
601.19	0.11029	0.00027
601.24	0.10382	0.00041
601.28	0.10464	0.00023
601.31	0.09812	0.0005
601.36	0.1055	0.00033
601.4	0.10199	0.00038
601.43	0.10056	0.00039
601.48	0.10178	0.00047
601.52	0.10168	0.00031
601.56	0.10163	0.00042
601.6	0.10469	0.00042
601.64	0.1055	0.00033
601.68	0.1085	0.00041
601.72	0.10367	0.00042
601.76	0.10733	0.00056
601.8	0.10769	0.00051
601.84	0.11008	0.0006
601.88	0.10626	0.0002
601.92	0.10642	0.00052
601.95	0.10642	0.00025
602.0	0.11044	0.00034
602.04	0.10265	0.00036
602.07	0.1028	0.00025
602.12	0.10759	0.00044
602.16	0.10749	0.00052
602.19	0.10927	0.00036
602.24	0.10255	0.00042
602.28	0.1057	0.00048
602.31	0.1082	0.00023
602.36	0.10092	0.00051
602.4	0.10082	0.00057
602.43	0.10082	0.00025
602.48	0.1111	0.0004
602.52	0.10937	0.00033
602.56	0.10637	0.00025
602.6	0.10652	0.0004
602.64	0.09797	0.0007
602.68	0.09797	0.00042
602.72	0.1027	0.00044
602.76	0.11105	0.00047
602.8	0.1083	0.00031
602.84	0.10357	0.00053
602.88	0.1027	0.00031
602.92	0.10357	0.00036
602.95	0.1055	0.00056
603.0	0.10591	0.00041
603.04	0.10764	0.00042
603.07	0.10382	0.00041
603.12	0.10458	0.00027
603.16	0.10469	0.00042
603.19	0.10301	0.00044
603.24	0.1	0.00042
603.28	0.09995	0.00044
603.31	0.1054	0.00052
603.36	0.10525	0.00031
603.4	0.09878	0.00047
603.43	0.10555	0.00038
603.48	0.11212	0.00033
603.52	0.11024	0.00056
603.56	0.11039	0.0004
603.6	0.10061	0.00027
603.64	0.1054	0.00047
603.68	0.10295	0.00033
603.72	0.10738	0.00034
603.76	0.10886	0.00051
603.8	0.11095	0.00034
603.84	0.10194	0.00051
603.88	0.10183	0.00057
603.92	0.1054	0.00047
603.95	0.10825	0.00042
604.0	0.10733	0.0004
604.04	0.11115	0.0005
604.07	0.11085	0.00031
604.12	0.10362	0.00039
604.16	0.10392	0.00025
604.19	0.10657	0.00038
604.24	0.10469	0.00027
604.28	0.11288	0.00038
604.31	0.1054	0.00052
604.36	0.1082	0.00032
604.4	0.10082	0.00047
604.43	0.10092	0.0004
604.48	0.1055	0.00046
604.52	0.11003	0.00041
604.56	0.10555	0.0005
604.6	0.10754	0.00033
604.64	0.09995	0.00038
604.68	0.10189	0.00025
604.72	0.10194	0.0004
604.76	0.10194	0.00046
604.8	0.10555	0.00031
604.84	0.10637	0.00034
604.88	0.10738	0.00057
604.92	0.10377	0.0004
604.95	0.10637	0.00025
605.0	0.0999	0.00056
605.04	0.10005	0.00032
605.07	0.1084	0.00025
605.12	0.1026	0.00039
605.16	0.10209	0.00079
605.19	0.10927	0.00053
605.24	0.10372	0.00038
605.28	0.10942	0.00047
605.31	0.10474	0.00031
605.36	0.10448	0.00051
605.4	0.10173	0.0004
605.43	0.10881	0.0005
605.48	0.10377	0.00033
605.52	0.11024	0.00056
605.56	0.10845	0.00047
605.6	0.10586	0.00034
605.64	0.10545	0.00041
605.68	0.11024	0.00051
605.72	0.1082	0.00032
605.76	0.11018	0.00058
605.8	0.11018	0.00048
605.84	0.10825	0.00027
605.88	0.10448	0.0004
605.92	0.10453	0.00031
605.95	0.10555	0.00031
606.0	0.10311	0.0006
606.04	0.10738	0.00052
606.07	0.09695	0.00027
606.12	0.10657	0.00038
606.16	0.1085	0.00052
606.19	0.10917	0.00058
606.24	0.10927	0.00042
606.28	0.10932	0.00044
606.31	0.10474	0.0002
606.36	0.11278	0.00046
606.4	0.11395	0.00046
606.43	0.11003	0.00047
606.48	0.10906	0.00046
606.52	0.10932	0.00055
606.56	0.10275	0.00023
606.6	0.10647	0.00034
606.64	0.11039	0.00033
606.68	0.10367	0.00062
606.72	0.10565	0.00046
606.76	0.10937	0.00046
606.8	0.1085	0.00034
606.84	0.10815	0.00053
606.88	0.11202	0.00034
606.92	0.11115	0.00031
606.95	0.11003	0.00041
607.0	0.1084	0.00041
607.04	0.10632	0.00033
607.07	0.11691	0.00042
607.12	0.11701	0.00023
607.16	0.10382	0.00025
607.19	0.11411	0.00047
607.24	0.10764	0.00027
607.28	0.11212	0.0004
607.31	0.11614	0.00047
607.36	0.1112	0.00048
607.4	0.1112	0.00027
607.43	0.11217	0.0002
607.48	0.11039	0.00033
607.52	0.11217	0.00055
607.56	0.11278	0.00051
607.6	0.10922	0.00051
607.64	0.11472	0.00031
607.68	0.10912	0.00038
607.72	0.10947	0.00034
607.76	0.11324	0.00042
607.8	0.11024	0.00039
607.84	0.11405	0.00047
607.88	0.10744	0.00052
607.92	0.11207	0.00041
607.95	0.11477	0.00058
608.0	0.11487	0.00042
608.04	0.11701	0.0004
608.07	0.11777	0.0005
608.12	0.1083	0.0005
608.16	0.11018	0.00036
608.19	0.11411	0.00065
608.24	0.11222	0.00036
608.28	0.11207	0.00047
608.31	0.11599	0.0004
608.36	0.11411	0.00047
608.4	0.11095	0.00034
608.43	0.1139	0.00044
608.48	0.11589	0.00036
608.52	0.10723	0.00027
608.56	0.10912	0.0005
608.6	0.10901	0.00025
608.64	0.11232	0.00027
608.68	0.10082	0.00025
608.72	0.10927	0.00053
608.76	0.11115	0.00031
608.8	0.1055	0.00046
608.84	0.11293	0.00033
608.88	0.11304	0.00041
608.92	0.1083	0.00044
608.95	0.10438	0.00025
609.0	0.10906	0.0004
609.04	0.11217	0.0002
609.07	0.1053	0.00046
609.12	0.1026	0.00032
609.16	0.10952	0.00065
609.19	0.10927	0.00062
609.24	0.1084	0.00057
609.28	0.10581	0.0006
609.31	0.10657	0.00031
609.36	0.1083	0.00031
609.4	0.10932	0.00044
609.43	0.11293	0.00023
609.48	0.11298	0.00025
609.52	0.10662	0.00027
609.56	0.1054	0.00034
609.6	0.10749	0.00041
609.64	0.10438	0.00041
609.68	0.10764	0.00058
609.72	0.10932	0.00031
609.76	0.10922	0.00056
609.8	0.11304	0.00041
609.84	0.10738	0.00047
609.88	0.11207	0.00047
609.92	0.11034	0.0005
609.95	0.111	0.00041
610.0	0.10285	0.00034
610.04	0.10453	0.0002
610.07	0.10484	0.00041
610.12	0.10728	0.00055
610.16	0.10835	0.0004
610.19	0.10458	0.00027
610.24	0.1084	0.00034
610.28	0.10178	0.00047
610.31	0.1084	0.00034
610.36	0.1081	0.00044
610.4	0.11222	0.00027
610.43	0.11029	0.00015
610.48	0.10367	0.00053
610.52	0.10275	0.00023
610.56	0.1083	0.00038
610.6	0.1054	0.00047
610.64	0.10555	0.0005
610.68	0.10744	0.00025
610.72	0.10647	0.00061
610.76	0.10759	0.0005
610.8	0.10642	0.00041
610.84	0.10922	0.00051
610.88	0.10942	0.00061
610.92	0.11212	0.00023
610.95	0.11192	0.00046
611.0	0.10901	0.00034
611.04	0.1057	0.00042
611.07	0.11105	0.00034
611.12	0.1084	0.00047
611.16	0.10652	0.00033
611.19	0.11594	0.0005
611.24	0.11543	0.0005
611.28	0.10458	0.00042
611.31	0.11207	0.00034
611.36	0.1056	0.00048
611.4	0.11146	0.00047
611.43	0.11298	0.00047
611.48	0.11288	0.00031
611.52	0.11207	0.00041
611.56	0.11217	0.00038
611.6	0.11013	0.00044
611.64	0.11105	0.00052
611.68	0.1112	0.00042
611.72	0.11115	0.00071
611.76	0.11955	0.00046
611.8	0.11105	0.00047
611.84	0.11105	0.00034
611.88	0.11115	0.00044
611.92	0.11013	0.0005
611.95	0.11227	0.00039
612.0	0.12266	0.00034
612.04	0.10744	0.00052
612.07	0.11421	0.00031
612.12	0.11405	0.00041
612.16	0.11696	0.00038
612.19	0.10901	0.00034
612.24	0.11482	0.00046
612.28	0.11013	0.00055
612.31	0.11034	0.00038
612.36	0.11207	0.00025
612.4	0.11416	0.0004
612.43	0.11405	0.00034
612.48	0.11319	0.00044
612.52	0.11594	0.00038
612.56	0.11314	0.00065
612.6	0.11298	0.00034
612.64	0.1111	0.00046
612.68	0.11573	0.0005
612.72	0.11579	0.0007
612.76	0.11039	0.00023
612.8	0.10815	0.00027
612.84	0.11701	0.0004
612.88	0.11222	0.00027
612.92	0.11095	0.00041
612.95	0.10922	0.00039
613.0	0.10932	0.0005
613.04	0.10906	0.00046
613.07	0.11095	0.00034
613.12	0.11105	0.00047
613.16	0.10917	0.00048
613.19	0.10738	0.00041
613.24	0.10367	0.00036
613.28	0.11029	0.00036
613.31	0.11013	0.0005
613.36	0.10382	0.00041
613.4	0.11298	0.00052
613.43	0.10637	0.00034
613.48	0.1111	0.00051
613.52	0.10469	0.00036
613.56	0.11024	0.00039
613.6	0.10993	0.00052
613.64	0.11039	0.00033
613.68	0.10718	0.00056
613.72	0.10835	0.00023
613.76	0.11125	0.00039
613.8	0.111	0.00025
613.84	0.11115	0.00038
613.88	0.10825	0.00036
613.92	0.1084	0.00047
613.95	0.10845	0.00041
614.0	0.10927	0.00058
614.04	0.10769	0.00032
614.07	0.10764	0.00048
614.12	0.12164	0.00025
614.16	0.11375	0.00053
614.19	0.11395	0.00046
614.24	0.11115	0.0005
614.28	0.10922	0.00064
614.31	0.1085	0.00034
614.36	0.11105	0.00047
614.4	0.11008	0.00033
614.43	0.10937	0.00046
614.48	0.10927	0.00048
614.52	0.10555	0.00038
614.56	0.11227	0.00032
614.6	0.10514	0.00039
614.64	0.11298	0.00034
614.68	0.11024	0.00051
614.72	0.10835	0.00033
614.76	0.10657	0.00044
614.8	0.10657	0.00031
614.84	0.11517	0.00046
614.88	0.11217	0.00055
614.92	0.11207	0.00041
614.95	0.1085	0.00025
615.0	0.10535	0.00041
615.04	0.11502	0.00041
615.07	0.11477	0.00053
615.12	0.11095	0.00052
615.16	0.11003	0.00052
615.19	0.11202	0.00034
615.24	0.11024	0.00039
615.28	0.11029	0.00027
615.31	0.11482	0.00032
615.36	0.10932	0.00031
615.4	0.10932	0.00055
615.43	0.10825	0.00042
615.48	0.10845	0.00034
615.52	0.10835	0.00033
615.56	0.11227	0.00039
615.6	0.11278	0.00039
615.64	0.10754	0.0006
615.68	0.10754	0.00046
615.72	0.11013	0.00044
615.76	0.11197	0.00047
615.8	0.10825	0.00042
615.84	0.11207	0.00047
615.88	0.11517	0.0006
615.92	0.11024	0.00032
615.95	0.11008	0.0004
616.0	0.11293	0.0004
616.04	0.10942	0.00047
616.07	0.114	0.00047
616.12	0.10983	0.00044
616.16	0.11136	0.00038
616.19	0.10845	0.00034
616.24	0.11008	0.0004
616.28	0.11029	0.00042
616.31	0.10835	0.0004
616.36	0.10794	0.00041
616.4	0.11237	0.00038
616.43	0.10728	0.00055
616.48	0.11085	0.0005
616.52	0.11222	0.00027
616.56	0.11222	0.00036
616.6	0.11298	0.00041
616.64	0.10845	0.00052
616.68	0.10917	0.00036
616.72	0.11685	0.00023
616.76	0.11115	0.00064
616.8	0.11034	0.00038
616.84	0.10983	0.00038
616.88	0.10825	0.00027
616.92	0.10825	0.00036
616.95	0.11217	0.00044
617.0	0.11517	0.0004
617.04	0.11044	0.00025
617.07	0.11416	0.0004
617.12	0.10835	0.0004
617.16	0.1084	0.00025
617.19	0.1167	0.0004
617.24	0.1027	0.00038
617.28	0.1138	0.00032
617.31	0.10952	0.00047
617.36	0.1083	0.00038
617.4	0.1082	0.00023
617.43	0.10835	0.0004
617.48	0.10555	0.0005
617.52	0.11614	0.00041
617.56	0.11288	0.00038
617.6	0.1083	0.00031
617.64	0.1113	0.00027
617.68	0.11594	0.00059
617.72	0.10896	0.00041
617.76	0.10906	0.00033
617.8	0.11232	0.00036
617.84	0.11293	0.0006
617.88	0.11278	0.00046
617.92	0.11202	0.00041
617.95	0.10642	0.00025
618.0	0.11685	0.00032
618.04	0.11706	0.00034
618.07	0.11314	0.00046
618.12	0.10947	0.00034
618.16	0.1112	0.00036
618.19	0.11487	0.00036
618.24	0.11421	0.00031
618.28	0.11202	0.00034
618.31	0.11207	0.00041
618.36	0.11105	0.00034
618.4	0.11375	0.00036
618.43	0.11293	0.00033
618.48	0.11125	0.00039
618.52	0.10993	0.00034
618.56	0.11436	0.00027
618.6	0.11039	0.00046
618.64	0.11029	0.00042
618.68	0.11523	0.00044
618.72	0.11202	0.00025
618.76	0.10825	0.00042
618.8	0.11685	0.00046
618.84	0.10535	0.00047
618.88	0.11416	0.00033
618.92	0.11405	0.00025
618.95	0.11405	0.00034
619.0	0.11319	0.00044
619.04	0.11421	0.0002
619.07	0.11889	0.00051
619.12	0.1113	0.00042
619.16	0.11691	0.00036
619.19	0.10927	0.00048
619.24	0.10906	0.00033
619.28	0.11217	0.0002
619.31	0.114	0.00041
619.36	0.11492	0.0005
619.4	0.10901	0.00025
619.43	0.11976	0.00068
619.48	0.11685	0.00039
619.52	0.11696	0.00031
619.56	0.11609	0.00047
619.6	0.10942	0.00057
619.64	0.10194	0.00046
619.68	0.11711	0.00025
619.72	0.11222	0.00036
619.76	0.11477	0.00036
619.8	0.11482	0.00039
619.84	0.10912	0.0005
619.88	0.11874	0.00033
619.92	0.12042	0.00046
619.95	0.11212	0.0004
620.0	0.11319	0.00031
620.04	0.11594	0.0002
620.07	0.11329	0.00032
620.12	0.11293	0.0006
620.16	0.10942	0.00057
620.19	0.11309	0.00047
620.24	0.11416	0.00033
620.28	0.11222	0.00036
620.31	0.1085	0.00041
620.36	0.11517	0.00051
620.4	0.11497	0.00033
620.43	0.10937	0.00023
620.48	0.11477	0.00036
620.52	0.11151	0.00047
620.56	0.11502	0.00034
620.6	0.11329	0.00039
620.64	0.11278	0.00039
620.68	0.11288	0.00044
620.72	0.10947	0.00034
620.76	0.11212	0.00023
620.8	0.11395	0.00033
620.84	0.10932	0.00031
620.88	0.11579	0.00036
620.92	0.11217	0.00059
620.95	0.10932	0.00038
621.0	0.10912	0.0005
621.04	0.11039	0.00033
621.07	0.11024	0.00032
621.12	0.10825	0.00048
621.16	0.11125	0.00039
621.19	0.11777	0.00044
621.24	0.11029	0.00036
621.28	0.11018	0.00027
621.31	0.11599	0.00051
621.36	0.11584	0.00039
621.4	0.111	0.00041
621.43	0.11416	0.00033
621.48	0.11207	0.00025
621.52	0.10932	0.00044
621.56	0.11803	0.00051
621.6	0.11777	0.0005
621.64	0.11792	0.00058
621.68	0.11589	0.00042
621.72	0.11614	0.00034
621.76	0.11711	0.00057
621.8	0.11197	0.00047
621.84	0.11584	0.00056
621.88	0.11584	0.00051
621.92	0.11395	0.0004
621.95	0.11696	0.0002
622.0	0.11889	0.00039
622.04	0.1196	0.00041
622.07	0.11777	0.00044
622.12	0.12149	0.00058
622.16	0.12144	0.00046
622.19	0.11971	0.00041
622.24	0.11696	0.00038
622.28	0.10845	0.00047
622.31	0.1168	0.00053
622.36	0.11492	0.00059
622.4	0.11304	0.00047
622.43	0.11599	0.0006
622.48	0.11584	0.00039
622.52	0.12429	0.00034
622.56	0.114	0.00041
622.6	0.11889	0.00046
622.64	0.11309	0.00047
622.68	0.11395	0.00051
622.72	0.11864	0.00052
622.76	0.11894	0.00027
622.8	0.12042	0.00046
622.84	0.12164	0.00052
622.88	0.11319	0.0005
622.92	0.11334	0.00036
622.95	0.11609	0.00041
623.0	0.12342	0.00048
623.04	0.12358	0.00038
623.07	0.12154	0.0005
623.12	0.12648	0.00048
623.16	0.11797	0.00044
623.19	0.12286	0.00044
623.24	0.12434	0.0004
623.28	0.12826	0.00025
623.31	0.12337	0.00038
623.36	0.12347	0.00032
623.4	0.12342	0.00053
623.43	0.12327	0.00041
623.48	0.12449	0.00039
623.52	0.13473	0.00027
623.56	0.13661	0.00038
623.6	0.13666	0.00036
623.64	0.13686	0.00033
623.68	0.13753	0.00034
623.72	0.14888	0.00048
623.76	0.1387	0.00027
623.8	0.14633	0.00036
623.84	0.14903	0.00031
623.88	0.14995	0.00064
623.92	0.15932	0.00034
623.95	0.15921	0.00031
624.0	0.16604	0.00025
624.04	0.16329	0.00055
624.07	0.17062	0.00047
624.12	0.17077	0.00053
624.16	0.17729	0.00023
624.19	0.17347	0.00044
624.24	0.17352	0.0004
624.28	0.17332	0.00027
624.31	0.17815	0.00041
624.36	0.17072	0.00031
624.4	0.17607	0.00023
624.43	0.17785	0.00031
624.48	0.17444	0.00048
624.52	0.17439	0.00051
624.56	0.17143	0.0002
624.6	0.17332	0.00048
624.64	0.16207	0.0002
624.68	0.16202	0.00033
624.72	0.16405	0.0004
624.76	0.16522	0.00046
624.8	0.16599	0.00057
624.84	0.16588	0.00033
624.88	0.1529	0.0002
624.92	0.1554	0.00046
624.95	0.14246	0.0004
625.0	0.14114	0.00023
625.04	0.13936	0.00031
625.07	0.13742	0.00034
625.12	0.13742	0.00052
625.16	0.12846	0.00031
625.19	0.13585	0.00046
625.24	0.13213	0.00051
625.28	0.12515	0.00033
625.31	0.13233	0.00041
625.36	0.13024	0.00046
625.4	0.12546	0.00027
625.43	0.12531	0.00034
625.48	0.13096	0.00046
625.52	0.12337	0.00055
625.56	0.12363	0.0004
625.6	0.12536	0.00033
625.64	0.12352	0.00036
625.68	0.12744	0.00031
625.72	0.12724	0.00057
625.76	0.13019	0.00031
625.8	0.12724	0.00041
625.84	0.13671	0.00023
625.88	0.14053	0.00025
625.92	0.14206	0.00034
625.95	0.14898	0.00036
626.0	0.14898	0.00036
626.04	0.14796	0.00062
626.07	0.14801	0.00038
626.12	0.14812	0.00041
626.16	0.16319	0.00032
626.19	0.16792	0.00046
626.24	0.18391	0.0004
626.28	0.17642	0.00032
626.31	0.17632	0.00038
626.36	0.18981	0.0004
626.4	0.20458	0.00033
626.43	0.20641	0.00048
626.48	0.21481	0.00025
626.52	0.23085	0.00027
626.56	0.24419	0.00042
626.6	0.24409	0.00042
626.64	0.26002	0.0005
626.68	0.26491	0.00044
626.72	0.26323	0.00047
626.76	0.27245	0.00047
626.8	0.27428	0.00044
626.84	0.28263	0.00041
626.88	0.28278	0.00053
626.92	0.27978	0.0006
626.95	0.27698	0.00041
627.0	0.29887	0.00047
627.04	0.28156	0.00052
627.07	0.2836	0.00052
627.12	0.28283	0.00039
627.16	0.27708	0.00046
627.19	0.27728	0.00062
627.24	0.27535	0.00023
627.28	0.25269	0.00038
627.31	0.25162	0.00046
627.36	0.26186	0.00038
627.4	0.23767	0.00051
627.43	0.23497	0.00023
627.48	0.23487	0.00038
627.52	0.23004	0.00033
627.56	0.21206	0.00032
627.6	0.21339	0.00041
627.64	0.19328	0.00036
627.68	0.18391	0.00065
627.72	0.17719	0.00041
627.76	0.17047	0.00046
627.8	0.17087	0.00048
627.84	0.1612	0.00058
627.88	0.15199	0.00023
627.92	0.14903	0.00059
627.95	0.14455	0.00041
628.0	0.14435	0.00039
628.04	0.13946	0.00041
628.07	0.13936	0.00044
628.12	0.13467	0.00039
628.16	0.1363	0.00044
628.19	0.14338	0.00042
628.24	0.1331	0.00027
628.28	0.12836	0.00025
628.31	0.12551	0.00023
628.36	0.125	0.00051
628.4	0.13305	0.00038
628.43	0.13294	0.00041
628.48	0.12836	0.00052
628.52	0.13579	0.00055
628.56	0.13213	0.00051
628.6	0.12541	0.00038
628.64	0.12245	0.00056
628.68	0.12251	0.00036
628.72	0.13671	0.0
628.76	0.12826	0.00047
628.8	0.13371	0.00036
628.84	0.13498	0.00025
628.88	0.12159	0.00051
628.92	0.13024	0.0004
628.95	0.13024	0.0004
629.0	0.12526	0.00047
629.04	0.12607	0.00053
629.07	0.12638	0.0004
629.12	0.12454	0.00053
629.16	0.12352	0.00048
629.19	0.11971	0.00041
629.24	0.11996	0.00036
629.28	0.12266	0.00034
629.31	0.12352	0.00053
629.36	0.12358	0.00044
629.4	0.12368	0.00057
629.43	0.12169	0.00034
629.48	0.11894	0.00036
629.52	0.11405	0.00041
629.56	0.11395	0.00056
629.6	0.11797	0.00038
629.64	0.12444	0.00027
629.68	0.11039	0.00033
629.72	0.11411	0.00041
629.76	0.11675	0.00038
629.8	0.11034	0.00044
629.84	0.11054	0.00034
629.88	0.11222	0.00027
629.92	0.10774	0.00036
629.95	0.114	0.00047
630.0	0.11293	0.00051
630.04	0.1083	0.00038
630.07	0.11029	0.00042
630.12	0.10912	0.00031
630.16	0.10927	0.00036
630.19	0.10922	0.00046
630.24	0.10474	0.00055
630.28	0.11186	0.00038
630.31	0.11024	0.00032
630.36	0.10688	0.00034
630.4	0.10453	0.00038
630.43	0.10458	0.00048
630.48	0.10759	0.00031
630.52	0.10367	0.00048
630.56	0.1029	0.00047
630.6	0.10443	0.00025
630.64	0.11095	0.00047
630.68	0.10637	0.00025
630.72	0.10647	0.00057
630.76	0.10647	0.00041
630.8	0.10092	0.0004
630.84	0.10657	0.00044
630.88	0.1084	0.00034
630.92	0.10458	0.00027
630.95	0.10912	0.00031
631.0	0.10652	0.0004
631.04	0.10637	0.00041
631.07	0.10102	0.00053
631.12	0.10728	0.0002
631.16	0.10565	0.00046
631.19	0.10647	0.00025
631.24	0.10367	0.00042
631.28	0.097	0.00039
631.31	0.09685	0.00033
631.36	0.10194	0.00046
631.4	0.10545	0.00025
631.43	0.10723	0.00058
631.48	0.10968	0.00042
631.52	0.0999	0.0006
631.56	0.1028	0.00025
631.6	0.10183	0.00034
631.64	0.10158	0.00046
631.68	0.10733	0.0004
631.72	0.1053	0.00046
631.76	0.10672	0.00042
631.8	0.10285	0.00057
631.84	0.10387	0.00052
631.88	0.10825	0.00042
631.92	0.1083	0.00044
631.95	0.10545	0.00041
632.0	0.10555	0.00038
632.04	0.10723	0.00042
632.07	0.11212	0.0004
632.12	0.11487	0.00042
632.16	0.12347	0.00039
632.19	0.12358	0.00044
632.24	0.11365	0.00072
632.28	0.11691	0.00036
632.31	0.11411	0.00034
632.36	0.11965	0.00034
632.4	0.12643	0.00044
632.43	0.1196	0.00041
632.48	0.11889	0.00032
632.52	0.11864	0.00061
632.56	0.12072	0.00041
632.6	0.11797	0.0005
632.64	0.11955	0.00051
632.68	0.12536	0.00046
632.72	0.12225	0.00047
632.76	0.12918	0.00031
632.8	0.12923	0.00033
632.84	0.12536	0.00023
632.88	0.13111	0.00056
632.92	0.13116	0.00058
632.95	0.13019	0.0005
633.0	0.11584	0.00032
633.04	0.12714	0.0002
633.07	0.12724	0.00041
633.12	0.12424	0.00041
633.16	0.12526	0.00041
633.19	0.12052	0.00038
633.24	0.11584	0.00046
633.28	0.11889	0.00039
633.31	0.11507	0.00047
633.36	0.12083	0.00031
633.4	0.12083	0.0002
633.43	0.1195	0.00031
633.48	0.11971	0.00057
633.52	0.114	0.00034
633.56	0.1111	0.00033
633.6	0.10835	0.00023
633.64	0.11298	0.00034
633.68	0.11319	0.00038
633.72	0.11767	0.00041
633.76	0.1113	0.00042
633.8	0.10453	0.00031
633.84	0.11502	0.00052
633.88	0.10255	0.00036
633.92	0.10754	0.00051
633.95	0.10912	0.00044
634.0	0.10891	0.00041
634.04	0.10285	0.00034
634.07	0.10952	0.00041
634.12	0.10382	0.00034
634.16	0.1027	0.0002
634.19	0.1082	0.00039
634.24	0.10392	0.00025
634.28	0.10377	0.0004
634.31	0.10346	0.00051
634.36	0.10657	0.00038
634.4	0.1027	0.00031
634.43	0.10861	0.00038
634.48	0.10469	0.00042
634.52	0.1055	0.00051
634.56	0.10565	0.00046
634.6	0.11222	0.00027
634.64	0.10194	0.0004
634.68	0.10845	0.00034
634.72	0.1112	0.00042
634.76	0.10652	0.0004
634.8	0.10713	0.00027
634.84	0.10357	0.00036
634.88	0.10357	0.00053
634.92	0.10458	0.00042
634.95	0.10087	0.00041
635.0	0.10357	0.00066
635.04	0.09985	0.00052
635.07	0.10937	0.0004
635.12	0.10932	0.00031
635.16	0.10927	0.00036
635.19	0.09878	0.00047
635.24	0.10642	0.00034
635.28	0.10352	0.00059
635.31	0.10555	0.00059
635.36	0.1056	0.00053
