Waveleght	Intensity	Error
560.64	0.1028	0.00034
560.68	0.10194	0.0004
560.72	0.10647	0.00069
560.76	0.10845	0.00025
560.80	0.10285	0.00041
560.84	0.10947	0.00052
560.88	0.10647	0.00052
560.92	0.10642	0.00047
560.96	0.1112	0.00058
561.0	0.1026	0.00039
561.04	0.11003	0.00061
561.08	0.1113	0.00058
561.12	0.11105	0.00041
561.16	0.11029	0.00042
561.2	0.11029	0.00036
561.24	0.10087	0.00034
561.28	0.10295	0.0004
561.32	0.09995	0.00038
561.36	0.10835	0.00023
561.4	0.10026	0.00025
561.44	0.10845	0.00025
561.48	0.10382	0.00041
561.52	0.10402	0.0005
561.56	0.11034	0.00038
561.6	0.1084	0.00041
561.64	0.09995	0.00038
561.68	0.10845	0.00034
561.72	0.10453	0.00031
561.76	0.10367	0.00036
561.80	0.10382	0.00034
561.84	0.09995	0.00044
561.88	0.10642	0.00034
561.92	0.11217	0.00031
561.96	0.1053	0.00023
562.0	0.10825	0.00036
562.04	0.10453	0.0002
562.08	0.10428	0.0004
562.12	0.1084	0.00041
562.16	0.10637	0.00025
562.2	0.11115	0.0005
562.24	0.1055	0.0006
562.28	0.1056	0.00036
562.32	0.10464	0.00023
562.36	0.10402	0.0002
562.4	0.10382	0.00034
562.44	0.10581	0.00051
562.48	0.1055	0.00046
562.52	0.10194	0.00033
562.56	0.1028	0.00034
562.6	0.10168	0.0005
562.64	0.11029	0.00015
562.68	0.11044	0.00025
562.72	0.10835	0.00046
562.76	0.11044	0.00025
562.80	0.1084	0.00034
562.84	0.10372	0.00044
562.88	0.10754	0.00033
562.92	0.10392	0.00047
562.96	0.10372	0.0005
563.0	0.1056	0.00048
563.04	0.10469	0.00036
563.08	0.09695	0.00053
563.12	0.10733	0.00056
563.16	0.1026	0.00032
563.2	0.11217	0.00038
563.24	0.11105	0.00041
563.28	0.11136	0.00038
563.32	0.11039	0.00023
563.36	0.10937	0.00023
563.4	0.10626	0.00031
563.44	0.11018	0.00048
563.48	0.10647	0.00034
563.52	0.10265	0.00027
563.56	0.10265	0.00048
563.6	0.10265	0.00036
563.64	0.10744	0.00047
563.68	0.10825	0.00042
563.72	0.1029	0.00047
563.76	0.10555	0.00064
563.80	0.11029	0.00027
563.84	0.10189	0.00057
563.88	0.10194	0.00056
563.92	0.10642	0.00047
563.96	0.10469	0.00042
564.0	0.10713	0.00036
564.04	0.10301	0.00044
564.08	0.10896	0.00047
564.12	0.10453	0.00038
564.16	0.10448	0.0004
564.2	0.10464	0.00046
564.24	0.10448	0.00033
564.28	0.1056	0.00036
564.32	0.11008	0.00051
564.36	0.10657	0.0005
564.4	0.10856	0.0004
564.44	0.1084	0.00052
564.48	0.10759	0.00044
564.52	0.10097	0.0002
564.56	0.10749	0.00041
564.6	0.10092	0.00033
564.64	0.10474	0.00044
564.68	0.11298	0.00041
564.72	0.10295	0.0004
564.76	0.10301	0.00059
564.80	0.1055	0.00051
564.84	0.1139	0.00038
564.88	0.10759	0.00038
564.92	0.11624	0.00031
564.96	0.11803	0.00033
565.0	0.11594	0.00044
565.04	0.11599	0.0004
565.08	0.11884	0.00036
565.12	0.11472	0.00031
565.16	0.11976	0.00023
565.2	0.11853	0.00033
565.24	0.12836	0.00041
565.28	0.12622	0.00041
565.32	0.12607	0.00053
565.36	0.12648	0.00036
565.4	0.1275	0.00042
565.44	0.13223	0.00038
565.48	0.14257	0.00041
565.52	0.1331	0.00048
565.56	0.13498	0.00047
565.6	0.14119	0.00031
565.64	0.14134	0.00048
565.68	0.13875	0.00039
565.72	0.15443	0.00044
565.76	0.14313	0.00034
565.80	0.147	0.00031
565.84	0.1555	0.00036
565.88	0.14313	0.00034
565.92	0.14313	0.00041
565.96	0.14313	0.00034
566.0	0.14526	0.00031
566.04	0.15377	0.00034
566.08	0.15081	0.00072
566.12	0.147	0.0005
566.16	0.14236	0.00036
566.2	0.14689	0.00064
566.24	0.14705	0.00033
566.28	0.14257	0.00041
566.32	0.14959	0.0004
566.36	0.13951	0.00047
566.4	0.14043	0.00033
566.44	0.13936	0.00059
566.48	0.14033	0.00042
566.52	0.14063	0.00023
566.56	0.13208	0.00048
566.6	0.14893	0.00023
566.64	0.13228	0.0004
566.68	0.12729	0.00041
566.72	0.12836	0.00041
566.76	0.12892	0.00023
566.80	0.12928	0.00034
566.84	0.13019	0.0005
566.88	0.12984	0.00041
566.92	0.12831	0.00025
566.96	0.11782	0.00048
567.0	0.1139	0.00044
567.04	0.11696	0.0002
567.08	0.11482	0.00032
567.12	0.11487	0.00036
567.16	0.11207	0.00057
567.2	0.11411	0.00034
567.24	0.1056	0.00058
567.28	0.1084	0.00034
567.32	0.10835	0.0004
567.36	0.11395	0.0004
567.4	0.11416	0.0004
567.44	0.11227	0.00023
567.48	0.10728	0.00038
567.52	0.10917	0.00048
567.56	0.10637	0.00025
567.6	0.10265	0.00042
567.64	0.10754	0.00033
567.68	0.1057	0.00042
567.72	0.10555	0.00044
567.76	0.10738	0.00041
567.80	0.1055	0.00046
567.84	0.10265	0.00027
567.88	0.11105	0.00047
567.92	0.10372	0.00038
567.96	0.10764	0.00053
568.0	0.10738	0.00052
568.04	0.10733	0.00051
568.08	0.10657	0.0005
568.12	0.11563	0.00034
568.16	0.11502	0.00057
568.2	0.11436	0.00027
568.24	0.11589	0.00027
568.28	0.11589	0.00027
568.32	0.11385	0.00036
568.36	0.11696	0.00038
568.4	0.11314	0.00046
568.44	0.12042	0.00039
568.48	0.12459	0.0002
568.52	0.12016	0.00041
568.56	0.12724	0.00047
568.6	0.12729	0.00025
568.64	0.12449	0.00039
568.68	0.12729	0.00052
568.72	0.13396	0.00041
568.76	0.12923	0.0004
568.80	0.13849	0.00025
568.84	0.13921	0.00027
568.88	0.13936	0.00031
568.92	0.14053	0.00069
568.96	0.13574	0.00042
569.0	0.13946	0.00034
569.04	0.13661	0.00031
569.08	0.14806	0.0004
569.12	0.13956	0.00025
569.16	0.13982	0.00042
569.2	0.14134	0.00036
569.24	0.1471	0.00034
569.28	0.13773	0.00046
569.32	0.1474	0.00046
569.36	0.14221	0.00044
569.4	0.14801	0.00038
569.44	0.14521	0.00046
569.48	0.14501	0.0004
569.52	0.13783	0.00044
569.56	0.13289	0.00034
569.6	0.12928	0.00052
569.64	0.13004	0.00036
569.68	0.13371	0.00048
569.72	0.13126	0.00046
569.76	0.13111	0.00068
569.80	0.12449	0.00051
569.84	0.12699	0.00015
569.88	0.12337	0.00038
569.92	0.12256	0.00031
569.96	0.12164	0.00034
570.0	0.11685	0.00032
570.04	0.11517	0.00033
570.08	0.11482	0.00051
570.12	0.12332	0.00023
570.16	0.10917	0.00027
570.2	0.11599	0.00046
570.24	0.10927	0.00042
570.28	0.11207	0.00025
570.32	0.10642	0.00041
570.36	0.10642	0.00041
570.4	0.10637	0.00034
570.44	0.11212	0.00023
570.48	0.11217	0.0005
570.52	0.10835	0.00023
570.56	0.10535	0.00047
570.6	0.10962	0.00038
570.64	0.10912	0.00059
570.68	0.10749	0.00047
570.72	0.10183	0.00041
570.76	0.1027	0.00044
570.80	0.10637	0.00034
570.84	0.10367	0.00042
570.88	0.10728	0.00068
570.92	0.11105	0.00057
570.96	0.111	0.00047
571.0	0.10932	0.00055
571.04	0.11762	0.00041
571.08	0.10535	0.00047
571.12	0.1083	0.00044
571.16	0.1083	0.0002
571.2	0.11034	0.00059
571.24	0.11039	0.00051
571.28	0.10637	0.00034
571.32	0.10728	0.0005
571.36	0.10362	0.00032
571.4	0.1081	0.0002
571.44	0.11497	0.00033
571.48	0.111	0.00025
571.52	0.1111	0.00046
571.56	0.11971	0.00052
571.6	0.1109	0.00023
571.64	0.11115	0.00038
571.68	0.11309	0.00052
571.72	0.11304	0.00041
571.76	0.11024	0.00039
571.80	0.10906	0.00046
571.84	0.10932	0.00044
571.88	0.12245	0.00032
571.92	0.11635	0.00032
571.96	0.11298	0.00034
572.0	0.11589	0.00062
572.04	0.11976	0.00051
572.08	0.11955	0.00046
572.12	0.11976	0.00056
572.16	0.11971	0.00061
572.2	0.11212	0.00023
572.24	0.12144	0.00051
572.28	0.11691	0.00027
572.32	0.11502	0.00041
572.36	0.11283	0.00042
572.4	0.11894	0.00027
572.44	0.11869	0.00047
572.48	0.11604	0.00034
572.52	0.12042	0.00051
572.56	0.12062	0.00034
572.6	0.11298	0.00034
572.64	0.114	0.00025
572.68	0.11416	0.00046
572.72	0.11405	0.00047
572.76	0.11207	0.00034
572.80	0.11421	0.00044
572.84	0.11207	0.00041
572.88	0.11288	0.00031
572.92	0.11691	0.00027
572.96	0.11482	0.0006
573.0	0.11482	0.00046
573.04	0.10845	0.00025
573.08	0.10754	0.00023
573.12	0.10642	0.00041
573.16	0.10464	0.00032
573.2	0.10525	0.00055
573.24	0.10082	0.00052
573.28	0.10749	0.00052
573.32	0.10738	0.00061
573.36	0.10642	0.00041
573.4	0.10474	0.0002
573.44	0.10932	0.0002
573.48	0.10158	0.00064
573.52	0.10469	0.00027
573.56	0.10942	0.00034
573.6	0.10932	0.00038
573.64	0.11018	0.00036
573.68	0.10835	0.00023
573.72	0.11691	0.00036
573.76	0.11136	0.00055
573.80	0.11115	0.00044
573.84	0.10295	0.00046
573.88	0.10285	0.00041
573.92	0.10458	0.00036
573.96	0.11008	0.00051
574.0	0.11003	0.00041
574.04	0.1055	0.00046
574.08	0.11013	0.00055
574.12	0.10922	0.00046
574.16	0.1112	0.00036
574.2	0.11141	0.00033
574.24	0.11772	0.0004
574.28	0.11034	0.00031
574.32	0.11691	0.00027
574.36	0.11222	0.00036
574.4	0.11502	0.00052
574.44	0.12164	0.00041
574.48	0.12164	0.00065
574.52	0.1196	0.00047
574.56	0.12546	0.00036
574.6	0.12724	0.00052
574.64	0.1252	0.00041
574.68	0.12648	0.00042
574.72	0.12083	0.00031
574.76	0.1303	0.00057
574.80	0.12994	0.0004
574.84	0.13243	0.00057
574.88	0.14033	0.00058
574.92	0.13386	0.00047
574.96	0.14409	0.00034
575.0	0.13345	0.00041
575.04	0.1333	0.0004
575.08	0.13299	0.0004
575.12	0.13279	0.00033
575.16	0.13605	0.00046
575.2	0.13987	0.0002
575.24	0.13396	0.00052
575.28	0.13401	0.00033
575.32	0.13605	0.00033
575.36	0.13585	0.0004
575.4	0.1276	0.00053
575.44	0.14073	0.00027
575.48	0.12912	0.00048
575.52	0.13223	0.00038
575.56	0.13503	0.0004
575.6	0.13014	0.00048
575.64	0.14099	0.00041
575.68	0.14124	0.00048
575.72	0.13742	0.00034
575.76	0.14318	0.00046
575.80	0.13223	0.00044
575.84	0.13483	0.0004
575.88	0.14333	0.00046
575.92	0.14603	0.00033
575.96	0.14613	0.00047
576.0	0.14781	0.0005
576.04	0.14893	0.00046
576.08	0.147	0.00044
576.12	0.14409	0.00052
576.16	0.15921	0.00055
576.2	0.15937	0.00047
576.24	0.1614	0.00041
576.28	0.1613	0.00051
576.32	0.16303	0.0004
576.36	0.1724	0.00042
576.4	0.17622	0.00034
576.44	0.16772	0.00042
576.48	0.17627	0.00046
576.52	0.18661	0.00023
576.56	0.18645	0.0004
576.6	0.18376	0.00041
576.64	0.18768	0.00048
576.68	0.18386	0.00025
576.72	0.19236	0.00033
576.76	0.18498	0.00044
576.80	0.17347	0.0002
576.84	0.17362	0.00025
576.88	0.18569	0.00044
576.92	0.17449	0.0002
576.96	0.18009	0.00038
577.0	0.18284	0.00047
577.04	0.1781	0.00033
577.08	0.17647	0.00048
577.12	0.1696	0.00034
577.16	0.16965	0.0004
577.2	0.16507	0.00033
577.24	0.15545	0.00044
577.28	0.14908	0.00033
577.32	0.15647	0.00044
577.36	0.14526	0.0005
577.4	0.14628	0.00044
577.44	0.14618	0.00041
577.48	0.13585	0.00046
577.52	0.136	0.00025
577.56	0.13203	0.00044
577.6	0.12831	0.00041
577.64	0.12541	0.00031
577.68	0.1251	0.0005
577.72	0.12531	0.00025
577.76	0.11986	0.00042
577.80	0.11039	0.00046
577.84	0.11859	0.00041
577.88	0.11125	0.00046
577.92	0.10968	0.00042
577.96	0.10845	0.00025
578.0	0.11044	0.00034
578.04	0.11018	0.00027
578.08	0.10947	0.00047
578.12	0.10565	0.00056
578.16	0.10626	0.00031
578.2	0.10479	0.00023
578.24	0.10749	0.00034
578.28	0.10723	0.00027
578.32	0.10733	0.0004
578.36	0.10565	0.00046
578.4	0.10835	0.00033
578.44	0.10464	0.00032
578.48	0.10906	0.00023
578.52	0.1056	0.00053
578.56	0.10458	0.00036
578.6	0.1084	0.00025
578.64	0.10861	0.00038
578.68	0.10474	0.0002
578.72	0.10565	0.00039
578.76	0.10947	0.00052
578.80	0.10565	0.00051
578.84	0.10458	0.00027
578.88	0.10856	0.00033
578.92	0.10845	0.00041
578.96	0.10382	0.00057
579.0	0.10443	0.00025
579.04	0.10066	0.00038
579.08	0.10927	0.00042
579.12	0.10275	0.0004
579.16	0.10433	0.00034
579.2	0.10464	0.00046
579.24	0.10469	0.00015
579.28	0.10835	0.00033
579.32	0.10397	0.0004
579.36	0.10295	0.00051
579.4	0.10275	0.00033
579.44	0.10494	0.00034
579.48	0.10102	0.00042
579.52	0.10071	0.0004
579.56	0.10749	0.00034
579.6	0.11049	0.00041
579.64	0.10626	0.0005
579.68	0.11278	0.00032
579.72	0.11691	0.00027
579.76	0.11222	0.00036
579.80	0.11207	0.00041
579.84	0.11512	0.00047
579.88	0.11502	0.00047
579.92	0.11701	0.00033
579.96	0.11599	0.00056
580.0	0.11691	0.00042
580.04	0.11803	0.00051
580.08	0.11803	0.00056
580.12	0.11696	0.00044
580.16	0.11497	0.0004
580.2	0.12179	0.0004
580.24	0.11594	0.00038
580.28	0.12164	0.00034
580.32	0.12332	0.00056
580.36	0.11859	0.00052
580.4	0.11899	0.00059
580.44	0.1247	0.00041
580.48	0.12734	0.00041
580.52	0.12907	0.00032
580.56	0.12429	0.00047
580.6	0.12368	0.00041
580.64	0.12337	0.00038
580.68	0.12347	0.00039
580.72	0.13004	0.00042
580.76	0.12042	0.00039
580.80	0.13671	0.00039
580.84	0.11589	0.00036
580.88	0.13024	0.00046
580.92	0.12062	0.00057
580.96	0.12841	0.0004
581.0	0.12836	0.00047
581.04	0.12704	0.00023
581.08	0.12144	0.00032
581.12	0.12933	0.00034
581.16	0.1331	0.00036
581.2	0.13198	0.00046
581.24	0.13101	0.00038
581.28	0.13065	0.00042
581.32	0.13941	0.00051
581.36	0.13854	0.00047
581.4	0.1331	0.00042
581.44	0.14806	0.00046
581.48	0.13956	0.00052
581.52	0.14328	0.00048
581.56	0.14323	0.00055
581.6	0.15081	0.00033
581.64	0.15076	0.00025
581.68	0.15086	0.00038
581.72	0.15718	0.00031
581.76	0.15855	0.00048
581.80	0.16298	0.00041
581.84	0.16059	0.00036
581.88	0.16018	0.00048
581.92	0.1641	0.00031
581.96	0.16232	0.00046
582.0	0.167	0.00034
582.04	0.17454	0.00056
582.08	0.17159	0.00041
582.12	0.17622	0.00034
582.16	0.17632	0.0005
582.2	0.18264	0.00044
582.24	0.17642	0.00032
582.28	0.18177	0.00034
582.32	0.18757	0.00036
582.36	0.17892	0.00042
582.4	0.17724	0.00034
582.44	0.17688	0.00058
582.48	0.17612	0.00052
582.52	0.17174	0.0005
582.56	0.16599	0.00065
582.6	0.16492	0.00057
582.64	0.1613	0.00051
582.68	0.1527	0.00034
582.72	0.15092	0.00042
582.76	0.15051	0.00042
582.80	0.15708	0.00039
582.84	0.15265	0.00046
582.88	0.14328	0.00036
582.92	0.14323	0.0005
582.96	0.1472	0.00047
583.0	0.13305	0.00038
583.04	0.13279	0.00046
583.08	0.13488	0.00034
583.12	0.13483	0.00033
583.16	0.12846	0.00031
583.2	0.13284	0.00052
583.24	0.12342	0.00053
583.28	0.12154	0.00055
583.32	0.11879	0.00044
583.36	0.11879	0.00071
583.4	0.11859	0.00025
583.44	0.11492	0.00044
583.48	0.11482	0.00039
583.52	0.11217	0.00031
583.56	0.10637	0.00025
583.6	0.11039	0.00033
583.64	0.11024	0.00039
583.68	0.10448	0.00033
583.72	0.10632	0.00046
583.76	0.10749	0.00052
583.80	0.10744	0.00041
583.84	0.09995	0.00044
583.88	0.10362	0.00032
583.92	0.10367	0.00015
583.96	0.10367	0.00036
584.0	0.1056	0.00053
584.04	0.10555	0.00038
584.08	0.10392	0.00069
584.12	0.10204	0.00036
584.16	0.10484	0.00025
584.2	0.10744	0.00047
584.24	0.10738	0.00041
584.28	0.10168	0.0005
584.32	0.1054	0.00041
584.36	0.10219	0.0002
584.4	0.10754	0.00033
584.44	0.10652	0.00033
584.48	0.1113	0.00036
584.52	0.11095	0.00065
584.56	0.10952	0.00052
584.6	0.11212	0.00046
584.64	0.10927	0.00027
584.68	0.11293	0.00033
584.72	0.11731	0.00053
584.76	0.11833	0.00036
584.80	0.10922	0.00039
584.84	0.10947	0.00025
584.88	0.11971	0.00034
584.92	0.11884	0.00042
584.96	0.11314	0.0004
585.0	0.11675	0.00038
585.04	0.12342	0.00048
585.08	0.12638	0.00046
585.12	0.12632	0.00034
585.16	0.12734	0.00052
585.2	0.12846	0.00038
585.24	0.13014	0.00053
585.28	0.12149	0.00053
585.32	0.13299	0.00023
585.36	0.13747	0.00025
585.4	0.13768	0.00027
585.44	0.13493	0.00025
585.48	0.13773	0.0006
585.52	0.13758	0.00046
585.56	0.13498	0.00025
585.6	0.13411	0.00027
585.64	0.13742	0.00034
585.68	0.13305	0.00044
585.72	0.13294	0.00025
585.76	0.13203	0.0005
585.80	0.12999	0.00038
585.84	0.12434	0.00023
585.88	0.12836	0.00041
585.92	0.12912	0.00036
585.96	0.12164	0.00061
586.0	0.12144	0.00023
586.04	0.11884	0.00062
586.08	0.12897	0.00044
586.12	0.12256	0.00038
586.16	0.1168	0.00036
586.2	0.11813	0.00057
586.24	0.12439	0.0002
586.28	0.12434	0.00056
586.32	0.11991	0.00032
586.36	0.11701	0.00033
586.4	0.11003	0.00041
586.44	0.11115	0.00038
586.48	0.11787	0.00032
586.52	0.11115	0.00059
586.56	0.11777	0.00038
586.6	0.11762	0.00041
586.64	0.11701	0.00023
586.68	0.11884	0.00027
586.72	0.12632	0.00047
586.76	0.12174	0.00041
586.80	0.12144	0.00046
586.84	0.12424	0.00025
586.88	0.12449	0.00046
586.92	0.13019	0.00031
586.96	0.13299	0.00023
587.0	0.13646	0.00034
587.04	0.13666	0.00015
587.08	0.1387	0.00036
587.12	0.14598	0.00044
587.16	0.14694	0.00048
587.2	0.1471	0.00047
587.24	0.13844	0.00034
587.28	0.14338	0.00036
587.32	0.15453	0.00032
587.36	0.15071	0.00025
587.4	0.1611	0.00048
587.44	0.16202	0.00033
587.48	0.16207	0.00031
587.52	0.16202	0.0004
587.56	0.1668	0.00053
587.6	0.16792	0.00033
587.64	0.16695	0.00041
587.68	0.16884	0.00036
587.72	0.17072	0.00044
587.76	0.17062	0.00041
587.80	0.16874	0.00042
587.84	0.16792	0.00023
587.88	0.16492	0.00052
587.92	0.16772	0.00027
587.96	0.16207	0.00031
588.0	0.16863	0.00051
588.04	0.17133	0.00046
588.08	0.17138	0.00036
588.12	0.15932	0.00025
588.16	0.16212	0.00036
588.2	0.16482	0.00031
588.24	0.1526	0.00055
588.28	0.14725	0.0004
588.32	0.13961	0.00056
588.36	0.13936	0.00044
588.4	0.14623	0.0004
588.44	0.13966	0.00038
588.48	0.14053	0.00025
588.52	0.13473	0.00036
588.56	0.13187	0.00041
588.6	0.13371	0.00036
588.64	0.13411	0.00053
588.68	0.12347	0.00039
588.72	0.12531	0.00034
588.76	0.11696	0.00031
588.80	0.11971	0.00034
588.84	0.11487	0.00036
588.88	0.11385	0.00048
588.92	0.1082	0.00039
588.96	0.1084	0.00041
589.0	0.10555	0.00055
589.04	0.11278	0.00051
589.08	0.11197	0.00034
589.12	0.10917	0.00015
589.16	0.11304	0.00034
589.2	0.10372	0.00044
589.24	0.10382	0.00034
589.28	0.10173	0.00051
589.32	0.10845	0.00041
589.36	0.11762	0.00041
589.4	0.11125	0.00032
589.44	0.11467	0.00046
589.48	0.10835	0.0004
589.52	0.11416	0.0004
589.56	0.11411	0.00034
589.6	0.11217	0.00038
589.64	0.11685	0.00032
589.68	0.11507	0.00061
589.72	0.11436	0.00062
589.76	0.12928	0.00034
589.80	0.13325	0.00038
589.84	0.13294	0.00025
589.88	0.12077	0.0004
589.92	0.13004	0.00053
589.96	0.12719	0.00046
590.0	0.13289	0.00041
590.04	0.13106	0.00042
590.08	0.13844	0.00034
590.12	0.13829	0.00036
590.16	0.13661	0.00031
590.2	0.13691	0.00041
590.24	0.14323	0.00031
590.28	0.14333	0.00046
590.32	0.15199	0.00051
590.36	0.1473	0.00055
590.4	0.15743	0.0004
590.44	0.15743	0.0004
590.48	0.15748	0.00044
590.52	0.15361	0.00044
590.56	0.15168	0.00041
590.6	0.1499	0.00042
590.64	0.15713	0.00036
590.68	0.16191	0.00041
590.72	0.16207	0.0002
590.76	0.1556	0.00048
590.80	0.15759	0.00051
590.84	0.15733	0.00034
590.88	0.15672	0.00056
590.92	0.15	0.00036
590.96	0.15	0.00027
591.0	0.15244	0.00027
591.04	0.1526	0.0005
591.08	0.14603	0.0004
591.12	0.15438	0.00051
591.16	0.15092	0.00036
591.2	0.15086	0.00031
591.24	0.14806	0.0004
591.28	0.14252	0.00041
591.32	0.14221	0.00059
591.36	0.14343	0.00055
591.4	0.13951	0.00052
591.44	0.13936	0.00038
591.48	0.13671	0.00032
591.52	0.13936	0.00038
591.56	0.13854	0.00034
591.6	0.13854	0.00034
591.64	0.13579	0.00059
591.68	0.12719	0.00023
591.72	0.13305	0.00031
591.76	0.1303	0.00025
591.80	0.13758	0.0004
591.84	0.12541	0.00031
591.88	0.12831	0.00034
591.92	0.12821	0.00033
591.96	0.12251	0.00036
592.0	0.12057	0.00046
592.04	0.12067	0.00041
592.08	0.12322	0.00047
592.12	0.11691	0.00027
592.16	0.11741	0.00048
592.2	0.11787	0.00046
592.24	0.11976	0.00056
592.28	0.11965	0.00041
592.32	0.12439	0.0002
592.36	0.11599	0.00023
592.4	0.12139	0.00036
592.44	0.11584	0.00039
592.48	0.11599	0.00056
592.52	0.11696	0.0002
592.56	0.11477	0.00042
592.6	0.11105	0.00034
592.64	0.11217	0.00038
592.68	0.11614	0.00025
592.72	0.11594	0.00038
592.76	0.111	0.00034
592.80	0.11125	0.00046
592.84	0.10744	0.00047
592.88	0.10927	0.00058
592.92	0.11507	0.00025
592.96	0.11426	0.00048
593.0	0.11115	0.00038
593.04	0.11808	0.00052
593.08	0.11803	0.0004
593.12	0.10906	0.0004
593.16	0.1111	0.00051
593.2	0.10637	0.00034
593.24	0.11008	0.0004
593.28	0.11293	0.00033
593.32	0.11283	0.00053
593.36	0.11293	0.00046
593.4	0.11309	0.00041
593.44	0.10749	0.00025
593.48	0.10927	0.00053
593.52	0.11314	0.00046
593.56	0.11044	0.00034
593.6	0.10922	0.00046
593.64	0.11589	0.00048
593.68	0.11579	0.00048
593.72	0.11599	0.00046
593.76	0.11421	0.0005
593.80	0.11579	0.00058
593.84	0.11782	0.00042
593.88	0.11762	0.00052
593.92	0.12077	0.0004
593.96	0.12057	0.0004
594.0	0.11212	0.0004
594.04	0.11996	0.00042
594.08	0.11003	0.00041
594.12	0.111	0.00034
594.16	0.11797	0.00038
594.2	0.11298	0.00041
594.24	0.12337	0.00068
594.28	0.12312	0.00046
594.32	0.11864	0.00025
594.36	0.11304	0.00052
594.4	0.11604	0.00041
594.44	0.11507	0.00052
594.48	0.12067	0.00025
594.52	0.11971	0.00052
594.56	0.1195	0.00044
594.6	0.12149	0.00036
594.64	0.11467	0.00033
594.68	0.11034	0.0005
594.72	0.1168	0.00036
594.76	0.11685	0.00068
594.80	0.11894	0.00042
594.84	0.11859	0.00034
594.88	0.11512	0.00057
594.92	0.11497	0.00033
594.96	0.11411	0.00034
595.0	0.11217	0.00031
595.04	0.1111	0.00046
595.08	0.1113	0.00042
595.12	0.10637	0.00041
595.16	0.10621	0.00015
595.2	0.10723	0.00053
595.24	0.10453	0.00038
595.28	0.10917	0.00036
595.32	0.10825	0.00027
595.36	0.10555	0.00044
595.4	0.11013	0.00044
595.44	0.11034	0.00038
595.48	0.10886	0.00033
595.52	0.11044	0.00047
595.56	0.11227	0.00032
595.6	0.10723	0.00048
595.64	0.11319	0.0005
595.68	0.11125	0.00039
595.72	0.1112	0.00036
595.76	0.1111	0.0004
595.80	0.11864	0.00025
595.84	0.11125	0.00051
595.88	0.1082	0.00032
595.92	0.1111	0.00046
595.96	0.11604	0.00047
596.0	0.10922	0.00032
596.04	0.10922	0.00046
596.08	0.11507	0.00052
596.12	0.11395	0.00072
596.16	0.11619	0.00033
596.2	0.11874	0.00033
596.24	0.11986	0.00053
596.28	0.11207	0.00041
596.32	0.11202	0.00047
596.36	0.11685	0.00039
596.4	0.12368	0.00034
596.44	0.11604	0.00041
596.48	0.12154	0.00038
596.52	0.12261	0.0004
596.56	0.12734	0.00041
596.6	0.12632	0.00047
596.64	0.12632	0.00052
596.68	0.12057	0.00051
596.72	0.12811	0.00048
596.76	0.12607	0.00048
596.80	0.13488	0.00047
596.84	0.13305	0.00044
596.88	0.13386	0.00052
596.92	0.13391	0.00041
596.96	0.12999	0.00038
597.0	0.12368	0.00041
597.04	0.13116	0.00048
597.08	0.12841	0.0006
597.12	0.13106	0.00042
597.16	0.1331	0.00015
597.2	0.1304	0.00172
597.24	0.12902	0.00053
597.28	0.13086	0.00041
597.32	0.13579	0.00038
597.36	0.13376	0.00031
597.4	0.136	0.00034
597.44	0.14048	0.00041
597.48	0.13386	0.00047
597.52	0.13381	0.00033
597.56	0.13213	0.00039
597.6	0.13936	0.00038
597.64	0.13269	0.00036
597.68	0.12795	0.0005
597.72	0.13936	0.00044
597.76	0.13574	0.00042
597.80	0.13574	0.00053
597.84	0.12739	0.00051
597.88	0.1332	0.00053
597.92	0.12856	0.00023
597.96	0.13086	0.00025
598.0	0.13208	0.00048
598.04	0.13289	0.00034
598.08	0.128	0.00058
598.12	0.12826	0.00034
598.16	0.13559	0.00031
598.2	0.12999	0.00055
598.24	0.1304	0.00034
598.28	0.12454	0.00036
598.32	0.13294	0.00025
598.36	0.12546	0.00036
598.4	0.1252	0.00041
598.44	0.12836	0.00041
598.48	0.1361	0.00038
598.52	0.12363	0.0004
598.56	0.12719	0.00046
598.6	0.12271	0.00034
598.64	0.12551	0.00023
598.68	0.12526	0.00034
598.72	0.12179	0.0004
598.76	0.12918	0.00059
598.80	0.12714	0.00044
598.84	0.12907	0.00032
598.88	0.12597	0.00036
598.92	0.12938	0.00041
598.96	0.12632	0.00041
599.0	0.12612	0.00044
599.04	0.12918	0.00055
599.08	0.12454	0.00042
599.12	0.12841	0.00033
599.16	0.1252	0.00041
599.2	0.13101	0.0005
599.24	0.12638	0.00065
599.28	0.12638	0.00046
599.32	0.12811	0.00053
599.36	0.12536	0.00056
599.4	0.12526	0.00041
599.44	0.13106	0.00048
599.48	0.12261	0.00033
599.52	0.12734	0.00034
599.56	0.11899	0.00031
599.6	0.11879	0.0005
599.64	0.12363	0.0004
599.68	0.12174	0.00052
599.72	0.11787	0.00039
599.76	0.1194	0.00023
599.80	0.12816	0.00044
599.84	0.1224	0.00027
599.88	0.12266	0.00034
599.92	0.11497	0.00046
599.96	0.12444	0.00058
600.0	0.12261	0.0004
600.04	0.11421	0.00044
600.08	0.11482	0.00032
600.12	0.11497	0.00051
600.16	0.11497	0.00033
600.2	0.11217	0.00031
600.24	0.11385	0.00042
600.28	0.11217	0.00038
600.32	0.11487	0.00048
600.36	0.111	0.00034
600.4	0.1084	0.00052
600.44	0.1084	0.00041
600.48	0.1082	0.00046
600.52	0.11034	0.00031
600.56	0.11049	0.00034
600.6	0.11523	0.00055
600.64	0.11044	0.00052
600.68	0.1084	0.00025
600.72	0.11487	0.00058
600.76	0.11497	0.0004
600.80	0.11024	0.00039
600.84	0.11487	0.00036
600.88	0.11507	0.00052
600.92	0.10749	0.00034
600.96	0.1085	0.00034
601.0	0.10856	0.00046
601.04	0.1085	0.00041
601.08	0.10835	0.00033
601.12	0.1085	0.00041
601.16	0.10922	0.00023
601.2	0.1082	0.00032
601.24	0.10937	0.00046
601.28	0.10642	0.00025
601.32	0.10749	0.00047
601.36	0.10764	0.00058
601.4	0.10738	0.00061
601.44	0.11039	0.00046
601.48	0.10845	0.00025
601.52	0.10525	0.00031
601.56	0.1028	0.00034
601.6	0.10932	0.00038
601.64	0.10922	0.00039
601.68	0.10932	0.00059
601.72	0.10738	0.00034
601.76	0.1083	0.00031
601.80	0.11024	0.00046
601.84	0.09802	0.00023
601.88	0.10744	0.00057
601.92	0.10922	0.00046
601.96	0.10922	0.00039
602.0	0.10438	0.00047
602.04	0.1029	0.00052
602.08	0.1028	0.00041
602.12	0.10835	0.00046
602.16	0.11059	0.00051
602.2	0.11013	0.00055
602.24	0.11044	0.00041
602.28	0.10932	0.00044
602.32	0.10886	0.00023
602.36	0.10616	0.00032
602.4	0.10998	0.00041
602.44	0.10738	0.00047
602.48	0.1111	0.00046
602.52	0.1112	0.00036
602.56	0.11792	0.00048
602.6	0.11212	0.00046
602.64	0.10922	0.00046
602.68	0.11411	0.00034
602.72	0.10906	0.00033
602.76	0.11222	0.00042
602.80	0.10927	0.00036
602.84	0.10901	0.00034
602.88	0.1111	0.00051
602.92	0.11105	0.00041
602.96	0.11105	0.00047
603.0	0.10535	0.00041
603.04	0.10932	0.00038
603.08	0.11492	0.00059
603.12	0.11502	0.00057
603.16	0.10576	0.00038
603.2	0.11217	0.00031
603.24	0.10886	0.00046
603.28	0.11232	0.00027
603.32	0.11298	0.00025
603.36	0.11105	0.00041
603.4	0.11095	0.00047
603.44	0.10835	0.0004
603.48	0.10937	0.00046
603.52	0.11105	0.00047
603.56	0.10718	0.00039
603.6	0.11115	0.00031
603.64	0.10927	0.00036
603.68	0.11792	0.00027
603.72	0.11787	0.00032
603.76	0.1055	0.00033
603.80	0.11416	0.00046
603.84	0.114	0.00065
603.88	0.11095	0.00065
603.92	0.10754	0.00046
603.96	0.11095	0.00025
604.0	0.11125	0.00039
604.04	0.1112	0.00036
604.08	0.10713	0.00036
604.12	0.11125	0.00032
604.16	0.11212	0.0004
604.2	0.11054	0.00034
604.24	0.11202	0.00052
604.28	0.11008	0.00056
604.32	0.11044	0.00034
604.36	0.1082	0.00046
604.4	0.10952	0.00047
604.44	0.11614	0.00057
604.48	0.11217	0.00044
604.52	0.1111	0.0004
604.56	0.10718	0.0006
604.6	0.10718	0.00072
604.64	0.10443	0.00025
604.68	0.11497	0.00046
604.72	0.114	0.00052
604.76	0.11421	0.00031
604.80	0.1113	0.00053
604.84	0.11757	0.00034
604.88	0.11792	0.00042
604.92	0.11584	0.00039
604.96	0.11309	0.00052
605.0	0.11589	0.00036
605.04	0.11034	0.00031
605.08	0.11701	0.00072
605.12	0.11614	0.00041
605.16	0.11064	0.00044
605.2	0.11039	0.00023
605.24	0.10759	0.00031
605.28	0.11314	0.00046
605.32	0.11202	0.00052
605.36	0.11202	0.00034
605.4	0.11304	0.00047
605.44	0.11288	0.00044
605.48	0.11293	0.00033
605.52	0.10733	0.0004
605.56	0.10458	0.00042
605.6	0.11772	0.00051
605.64	0.1112	0.00048
605.68	0.10733	0.0004
605.72	0.11039	0.00051
605.76	0.11217	0.00031
605.80	0.11232	0.00062
605.84	0.10464	0.00032
605.88	0.1113	0.00048
605.92	0.1084	0.00052
605.96	0.1055	0.0004
606.0	0.10744	0.00052
606.04	0.10642	0.00061
606.08	0.10642	0.00025
606.12	0.10927	0.00042
606.16	0.11034	0.00038
606.2	0.10749	0.00034
606.24	0.11136	0.00031
606.28	0.10754	0.00051
606.32	0.1083	0.00044
606.36	0.10861	0.00038
606.4	0.11599	0.00051
606.44	0.11416	0.00023
606.48	0.11105	0.00034
606.52	0.11288	0.00055
606.56	0.11609	0.00047
606.6	0.10733	0.00033
606.64	0.11212	0.0004
606.68	0.11217	0.00038
606.72	0.10932	0.00038
606.76	0.10947	0.00047
606.80	0.10937	0.00046
606.84	0.10774	0.00027
606.88	0.11421	0.00055
606.92	0.11024	0.00032
606.96	0.11044	0.00047
607.0	0.11594	0.00059
607.04	0.10835	0.0004
607.08	0.11609	0.00034
607.12	0.11614	0.00034
607.16	0.11227	0.00046
607.2	0.11685	0.00046
607.24	0.11665	0.00034
607.28	0.11971	0.00057
607.32	0.12159	0.00051
607.36	0.12245	0.00039
607.4	0.11589	0.00036
607.44	0.12072	0.00041
607.48	0.12133	0.00044
607.52	0.11864	0.00052
607.56	0.11879	0.0002
607.6	0.1168	0.00042
607.64	0.12531	0.00025
607.68	0.12419	0.00025
607.72	0.12251	0.00027
607.76	0.11696	0.0002
607.80	0.12352	0.00048
607.84	0.12342	0.00042
607.88	0.12515	0.00046
607.92	0.12154	0.00031
607.96	0.11752	0.00033
608.0	0.12454	0.00015
608.04	0.11477	0.00074
608.08	0.12245	0.00032
608.12	0.12439	0.0002
608.16	0.12449	0.00032
608.2	0.12429	0.00052
608.24	0.12632	0.00034
608.28	0.12189	0.00053
608.32	0.11864	0.00034
608.36	0.11792	0.00062
608.4	0.11405	0.00041
608.44	0.11395	0.0004
608.48	0.12149	0.00058
608.52	0.11691	0.00027
608.56	0.1196	0.00034
608.6	0.12006	0.00033
608.64	0.11685	0.00032
608.68	0.12088	0.00058
608.72	0.12062	0.00041
608.76	0.11792	0.00042
608.80	0.11594	0.00055
608.84	0.11482	0.00039
608.88	0.11726	0.00031
608.92	0.11416	0.00051
608.96	0.11864	0.00025
609.0	0.11792	0.00036
609.04	0.11752	0.0004
609.08	0.11701	0.00023
609.12	0.1139	0.00031
609.16	0.11024	0.00056
609.2	0.111	0.00047
609.24	0.11405	0.00057
609.28	0.11492	0.00031
609.32	0.11487	0.00053
609.36	0.11619	0.00046
609.4	0.111	0.00041
609.44	0.10922	0.00023
609.48	0.11477	0.00053
609.52	0.11472	0.00044
609.56	0.11018	0.00048
609.6	0.10993	0.00041
609.64	0.11411	0.00041
609.68	0.12719	0.0004
609.72	0.11461	0.00025
609.76	0.11405	0.00047
609.80	0.1168	0.00027
609.84	0.11024	0.00046
609.88	0.11497	0.00023
609.92	0.11492	0.00038
609.96	0.11298	0.00057
610.0	0.11232	0.00042
610.04	0.11314	0.00033
610.08	0.1084	0.00034
610.12	0.11115	0.00078
610.16	0.10703	0.0004
610.2	0.10728	0.00059
610.24	0.11512	0.00041
610.28	0.11665	0.00034
610.32	0.11624	0.00038
610.36	0.11298	0.00047
610.4	0.10642	0.00041
610.44	0.114	0.00052
610.48	0.1168	0.00027
610.52	0.11691	0.00027
610.56	0.11599	0.00056
610.6	0.11874	0.00033
610.64	0.11594	0.00059
610.68	0.11298	0.00034
610.72	0.10912	0.00059
610.76	0.10728	0.00031
610.80	0.10733	0.00046
610.84	0.10932	0.0005
610.88	0.11298	0.00034
610.92	0.111	0.00034
610.96	0.11492	0.00031
611.0	0.11339	0.00038
611.04	0.11227	0.00051
611.08	0.11212	0.00023
611.12	0.11696	0.00044
611.16	0.11777	0.00059
611.2	0.12154	0.00044
611.24	0.11461	0.00052
611.28	0.12077	0.00023
611.32	0.1251	0.00038
611.36	0.12352	0.00042
611.4	0.12363	0.00051
611.44	0.11991	0.00051
611.48	0.12846	0.0002
611.52	0.13024	0.00033
611.56	0.13585	0.0006
611.6	0.12918	0.0002
611.64	0.13763	0.00038
611.68	0.13753	0.00047
611.72	0.13747	0.00057
611.76	0.14033	0.00036
611.80	0.15092	0.00058
611.84	0.1527	0.00025
611.88	0.14969	0.00041
611.92	0.16196	0.00034
611.96	0.1528	0.00034
612.0	0.15255	0.00042
612.04	0.16023	0.00044
612.08	0.17057	0.00041
612.12	0.16868	0.00044
612.16	0.16955	0.00041
612.2	0.17067	0.0004
612.24	0.1781	0.00033
612.28	0.17795	0.00051
612.32	0.16319	0.0
612.36	0.16904	0.00025
612.4	0.17072	0.00038
612.44	0.17535	0.00053
612.48	0.17057	0.00034
612.52	0.16792	0.0004
612.56	0.16777	0.00051
612.6	0.17128	0.00048
612.64	0.16395	0.00047
612.68	0.16212	0.00048
612.72	0.15947	0.0004
612.76	0.15647	0.0005
612.80	0.16135	0.00041
612.84	0.14898	0.00042
612.88	0.14913	0.00047
612.92	0.14613	0.00034
612.96	0.14246	0.00046
613.0	0.13671	0.00023
613.04	0.14129	0.00046
613.08	0.12938	0.00025
613.12	0.12831	0.00041
613.16	0.12821	0.00033
613.2	0.12897	0.00031
613.24	0.12627	0.00041
613.28	0.1252	0.00034
613.32	0.12444	0.00027
613.36	0.11976	0.00051
613.4	0.11792	0.00042
613.44	0.11777	0.0005
613.48	0.1168	0.00036
613.52	0.12169	0.00052
613.56	0.11064	0.00055
613.6	0.11609	0.00041
613.64	0.11991	0.00056
613.68	0.11502	0.00034
613.72	0.11853	0.00046
613.76	0.11874	0.00033
613.80	0.1195	0.00044
613.84	0.11599	0.0004
613.88	0.11859	0.00041
613.92	0.11792	0.00048
613.96	0.11772	0.00046
614.0	0.11675	0.00038
614.04	0.1167	0.0004
614.08	0.11512	0.00041
614.12	0.11981	0.00038
614.16	0.11614	0.00034
614.2	0.11955	0.0004
614.24	0.11767	0.00041
614.28	0.11528	0.00042
614.32	0.11981	0.0005
614.36	0.1196	0.00047
614.4	0.11879	0.00031
614.44	0.11685	0.00039
614.48	0.12057	0.00046
614.52	0.11864	0.00057
614.56	0.12154	0.0005
614.6	0.11823	0.00033
614.64	0.11797	0.00044
614.68	0.11736	0.00032
614.72	0.11675	0.00031
614.76	0.11803	0.00051
614.80	0.114	0.00034
614.84	0.11492	0.00038
614.88	0.12245	0.00032
614.92	0.12261	0.00033
614.96	0.11777	0.00064
615.0	0.11197	0.00034
615.04	0.11594	0.00044
615.08	0.11813	0.00041
615.12	0.11497	0.0006
615.16	0.11487	0.00058
615.2	0.11884	0.00027
615.24	0.11879	0.00059
615.28	0.11782	0.00042
615.32	0.11472	0.00038
615.36	0.11701	0.00033
615.4	0.111	0.00034
615.44	0.11497	0.00046
615.48	0.11288	0.00059
615.52	0.11304	0.00041
615.56	0.11787	0.00051
615.6	0.11421	0.00038
615.64	0.11029	0.00027
615.68	0.12256	0.00044
615.72	0.11523	0.0005
615.76	0.11517	0.00051
615.80	0.11497	0.00046
615.84	0.11497	0.00046
615.88	0.11502	0.00034
615.92	0.11792	0.00048
615.96	0.12083	0.00038
616.0	0.11706	0.00034
616.04	0.12077	0.00023
616.08	0.11512	0.00057
616.12	0.11502	0.00041
616.16	0.12373	0.00061
616.2	0.1196	0.00025
616.24	0.11777	0.00031
616.28	0.11293	0.00068
616.32	0.11609	0.00041
616.36	0.11034	0.00044
616.4	0.11018	0.00042
616.44	0.11869	0.00034
616.48	0.11018	0.00053
616.52	0.11304	0.00025
616.56	0.1196	0.00052
616.6	0.11869	0.00025
616.64	0.12057	0.0004
616.68	0.11492	0.0005
616.72	0.11497	0.00033
616.76	0.11293	0.00046
616.80	0.11701	0.00051
616.84	0.12235	0.00038
616.88	0.12057	0.00033
616.92	0.12144	0.00051
616.96	0.11981	0.00038
617.0	0.11991	0.00039
617.04	0.11986	0.00048
617.08	0.11207	0.00061
617.12	0.12266	0.00047
617.16	0.11202	0.00047
617.2	0.11502	0.00057
617.24	0.11991	0.00039
617.28	0.11986	0.00036
617.32	0.1247	0.00025
617.36	0.1196	0.00041
617.4	0.11691	0.00027
617.44	0.11589	0.00048
617.48	0.11787	0.00046
617.52	0.11976	0.00033
617.56	0.12724	0.00025
617.6	0.12714	0.00031
617.64	0.11986	0.00053
617.68	0.12531	0.00025
617.72	0.1252	0.00041
617.76	0.11691	0.00027
617.80	0.12139	0.00048
617.84	0.11777	0.00055
617.88	0.11803	0.00033
617.92	0.12174	0.00047
617.96	0.1112	0.00036
618.0	0.12515	0.0004
618.04	0.13004	0.00048
618.08	0.12251	0.00042
618.12	0.11981	0.00038
618.16	0.11981	0.0005
618.2	0.12062	0.00041
618.24	0.11981	0.00038
618.28	0.12719	0.00051
618.32	0.12928	0.00041
618.36	0.12627	0.00041
618.4	0.12067	0.00025
618.44	0.12531	0.00041
618.48	0.12526	0.00041
618.52	0.12541	0.00055
618.56	0.12454	0.00015
618.6	0.12724	0.00057
618.64	0.12826	0.00025
618.68	0.12709	0.00036
618.72	0.12449	0.00032
618.76	0.12424	0.00047
618.80	0.12434	0.00033
618.84	0.11853	0.00046
618.88	0.12526	0.00041
618.92	0.12999	0.0005
618.96	0.128	0.00053
619.0	0.12424	0.00025
619.04	0.12663	0.00031
619.08	0.12622	0.00034
619.12	0.12067	0.00034
619.16	0.12347	0.00056
619.2	0.12352	0.00042
619.24	0.12383	0.00046
619.28	0.12531	0.00034
619.32	0.11797	0.00038
619.36	0.11767	0.00047
619.4	0.11797	0.00044
619.44	0.12144	0.00046
619.48	0.11787	0.00046
619.52	0.11609	0.00047
619.56	0.11691	0.00042
619.6	0.12057	0.00033
619.64	0.12062	0.00047
619.68	0.11996	0.00042
619.72	0.11874	0.00033
619.76	0.11604	0.00041
619.80	0.11772	0.00033
619.84	0.12531	0.00052
619.88	0.11874	0.00033
619.92	0.11797	0.00038
619.96	0.11772	0.00051
620.0	0.12144	0.00023
620.04	0.11787	0.00046
620.08	0.12062	0.00034
620.12	0.12526	0.00052
620.16	0.12235	0.00038
620.2	0.11298	0.00034
620.24	0.11314	0.00033
620.28	0.11874	0.00033
620.32	0.11772	0.0004
620.36	0.12128	0.00033
620.4	0.12144	0.00039
620.44	0.12062	0.00041
620.48	0.12266	0.00034
620.52	0.11604	0.00034
620.56	0.11599	0.0004
620.6	0.11803	0.0004
620.64	0.11976	0.0004
620.68	0.12062	0.00041
620.72	0.12332	0.00046
620.76	0.12342	0.00062
620.80	0.12174	0.00041
620.84	0.12149	0.00036
620.88	0.12139	0.00036
620.92	0.12643	0.00044
620.96	0.11757	0.00041
621.0	0.12918	0.00044
621.04	0.11411	0.00041
621.08	0.12724	0.00034
621.12	0.1276	0.00036
621.16	0.12174	0.00047
621.2	0.13208	0.00042
621.24	0.12638	0.00033
621.28	0.12256	0.00031
621.32	0.12541	0.00038
621.36	0.12159	0.00033
621.4	0.13376	0.00038
621.44	0.13386	0.00065
621.48	0.12907	0.00051
621.52	0.12347	0.0006
621.56	0.12831	0.00034
621.6	0.12332	0.0004
621.64	0.12439	0.00031
621.68	0.13004	0.00042
621.72	0.12999	0.00044
621.76	0.12714	0.00031
621.80	0.12368	0.00041
621.84	0.12261	0.00033
621.88	0.12179	0.0004
621.92	0.12744	0.0005
621.96	0.11874	0.0004
622.0	0.11889	0.00023
622.04	0.1252	0.00034
622.08	0.12342	0.00048
622.12	0.13121	0.00044
622.16	0.12424	0.00025
622.2	0.12902	0.00027
622.24	0.12459	0.0005
622.28	0.1252	0.00052
622.32	0.12541	0.00038
622.36	0.12419	0.00041
622.4	0.12928	0.00034
622.44	0.12062	0.00025
622.48	0.12342	0.00036
622.52	0.11874	0.00033
622.56	0.12999	0.00038
622.6	0.13014	0.00053
622.64	0.12709	0.00027
622.68	0.12245	0.00023
622.72	0.13294	0.00034
622.76	0.12923	0.00033
622.80	0.12159	0.00033
622.84	0.12714	0.00044
622.88	0.13101	0.00044
622.92	0.13111	0.00039
622.96	0.12719	0.00033
623.0	0.12342	0.00042
623.04	0.13014	0.00042
623.08	0.12627	0.00025
623.12	0.12724	0.00025
623.16	0.12729	0.00025
623.2	0.12744	0.00068
623.24	0.13737	0.00046
623.28	0.1387	0.00042
623.32	0.14501	0.0004
623.36	0.13844	0.00041
623.4	0.14888	0.00036
623.44	0.15835	0.00034
623.48	0.1582	0.00055
623.52	0.1668	0.00036
623.56	0.18009	0.0005
623.6	0.17362	0.00025
623.64	0.1916	0.0002
623.68	0.20178	0.00038
623.72	0.21018	0.00033
623.76	0.22245	0.00034
623.80	0.2224	0.00033
623.84	0.23767	0.0004
623.88	0.25137	0.0002
623.92	0.27448	0.00052
623.96	0.30279	0.00044
624.0	0.31664	0.00025
624.04	0.36379	0.00032
624.08	0.36353	0.00025
624.12	0.37229	0.00046
624.16	0.38751	0.00047
624.2	0.41093	0.00065
624.24	0.43069	0.00034
624.28	0.43649	0.00031
624.32	0.46567	0.00048
624.36	0.46546	0.0006
624.4	0.4536	0.00041
624.44	0.4538	0.0005
624.48	0.44306	0.0006
624.52	0.4534	0.00046
624.56	0.46572	0.00038
624.6	0.44204	0.00033
624.64	0.44301	0.00025
624.68	0.44301	0.00025
624.72	0.43542	0.0006
624.76	0.43288	0.00023
624.80	0.43013	0.00023
624.84	0.41658	0.00023
624.88	0.39347	0.00046
624.92	0.38756	0.00033
624.96	0.38756	0.00033
625.0	0.36368	0.00031
625.04	0.34418	0.00041
625.08	0.32061	0.00044
625.12	0.29526	0.00041
625.16	0.2753	0.00044
625.2	0.23528	0.00041
625.24	0.22444	0.00051
625.28	0.22449	0.00047
625.32	0.21293	0.00056
625.36	0.19368	0.00048
625.4	0.17897	0.00039
625.44	0.17642	0.00032
625.48	0.15942	0.00047
625.52	0.15932	0.00034
625.56	0.15932	0.00034
625.6	0.15738	0.00041
625.64	0.14236	0.00062
625.68	0.13936	0.00038
625.72	0.14328	0.00036
625.76	0.14221	0.00038
625.80	0.14145	0.00046
625.84	0.14109	0.00025
625.88	0.14425	0.00044
625.92	0.15743	0.00046
625.96	0.14985	0.00038
626.0	0.14425	0.00038
626.04	0.14705	0.00023
626.08	0.16018	0.00036
626.12	0.16879	0.00023
626.16	0.16874	0.00036
626.2	0.16196	0.00034
626.24	0.1725	0.00023
626.28	0.17118	0.0004
626.32	0.18004	0.00027
626.36	0.18213	0.00038
626.4	0.20473	0.00034
626.44	0.20458	0.0004
626.48	0.2111	0.00053
626.52	0.21507	0.00048
626.56	0.2252	0.00055
626.6	0.2394	0.00056
626.64	0.26018	0.00034
626.68	0.25183	0.00036
626.72	0.28991	0.00053
626.76	0.29006	0.00044
626.80	0.30076	0.00038
626.84	0.30539	0.0006
626.88	0.31766	0.00025
626.92	0.32443	0.00033
626.96	0.32983	0.00046
627.0	0.34413	0.00057
627.04	0.34429	0.00051
627.08	0.3534	0.00047
627.12	0.34474	0.00034
627.16	0.34943	0.00038
627.2	0.36012	0.00044
627.24	0.34872	0.00034
627.28	0.35997	0.00057
627.32	0.36027	0.00042
627.36	0.3448	0.00033
627.4	0.33105	0.00056
627.44	0.31964	0.0006
627.48	0.32153	0.00039
627.52	0.30569	0.00048
627.56	0.29689	0.00041
627.6	0.29964	0.00023
627.64	0.29994	0.00034
627.68	0.28385	0.00039
627.72	0.27459	0.00031
627.76	0.24984	0.00038
627.80	0.26008	0.00033
627.84	0.22657	0.00057
627.88	0.21023	0.00034
627.92	0.21013	0.00038
627.96	0.20819	0.00041
628.0	0.17815	0.00025
628.04	0.17647	0.00053
628.08	0.17072	0.0005
628.12	0.1639	0.00047
628.16	0.16385	0.00056
628.2	0.16339	0.00041
628.24	0.16196	0.00057
628.28	0.14903	0.00031
628.32	0.15387	0.00056
628.36	0.14445	0.00031
628.4	0.14735	0.00036
628.44	0.1529	0.00038
628.48	0.14435	0.00051
628.52	0.1444	0.00048
628.56	0.14883	0.00031
628.6	0.15367	0.00056
628.64	0.15056	0.00031
628.68	0.1498	0.0004
628.72	0.15631	0.00041
628.76	0.15168	0.00041
628.80	0.15183	0.00033
628.84	0.14542	0.00027
628.88	0.14913	0.00047
628.92	0.1415	0.00041
628.96	0.14246	0.0004
629.0	0.14134	0.00036
629.04	0.14974	0.00034
629.08	0.14129	0.00032
629.12	0.14124	0.00048
629.16	0.14022	0.00036
629.2	0.14501	0.00033
629.24	0.14308	0.00052
629.28	0.13941	0.00046
629.32	0.13936	0.00038
629.36	0.14119	0.0002
629.4	0.14134	0.00048
629.44	0.13737	0.0004
629.48	0.13523	0.00053
629.52	0.13498	0.00041
629.56	0.13493	0.00052
629.6	0.12989	0.00061
629.64	0.13595	0.00047
629.68	0.13585	0.00051
629.72	0.13208	0.00027
629.76	0.12627	0.00041
629.80	0.12928	0.00034
629.84	0.12602	0.00039
629.88	0.12454	0.00027
629.92	0.12077	0.00033
629.96	0.11782	0.00042
630.0	0.11772	0.00033
630.04	0.11808	0.00025
630.08	0.11477	0.00048
630.12	0.11405	0.00052
630.16	0.11395	0.00056
630.2	0.11202	0.00041
630.24	0.1111	0.0004
630.28	0.11115	0.00031
630.32	0.11227	0.00056
630.36	0.10906	0.0004
630.4	0.11034	0.0005
630.44	0.10637	0.00025
630.48	0.10626	0.00031
630.52	0.11599	0.0004
630.56	0.11614	0.00034
630.6	0.11186	0.00031
630.64	0.09995	0.00044
630.68	0.11319	0.00031
630.72	0.1109	0.00023
630.76	0.10107	0.00039
630.80	0.11029	0.00027
630.84	0.10845	0.00025
630.88	0.1082	0.00051
630.92	0.1083	0.0002
630.96	0.10723	0.00036
631.0	0.11034	0.00031
631.04	0.11217	0.0002
631.08	0.11018	0.00048
631.12	0.10749	0.00041
631.16	0.10749	0.00047
631.2	0.10637	0.00025
631.24	0.1057	0.00042
631.28	0.10535	0.00047
631.32	0.10922	0.00032
631.36	0.10815	0.00042
631.4	0.1055	0.00033
631.44	0.10464	0.00064
631.48	0.10469	0.00042
631.52	0.10469	0.00048
631.56	0.10082	0.00041
631.6	0.10112	0.00066
631.64	0.11039	0.00033
631.68	0.11212	0.00023
631.72	0.10733	0.00046
631.76	0.10774	0.00036
631.80	0.11777	0.0005
631.84	0.11675	0.00038
631.88	0.11411	0.00041
631.92	0.11986	0.00042
631.96	0.12358	0.00038
632.0	0.12816	0.00031
632.04	0.12811	0.00042
632.08	0.13228	0.00046
632.12	0.13595	0.00041
632.16	0.13844	0.00041
632.2	0.14252	0.00052
632.24	0.14959	0.00033
632.28	0.15932	0.00025
632.32	0.15275	0.00047
632.36	0.1528	0.00041
632.4	0.16044	0.00041
632.44	0.15932	0.00034
632.48	0.16497	0.00041
632.52	0.16522	0.00032
632.56	0.16767	0.00044
632.6	0.17052	0.00047
632.64	0.17067	0.00051
632.68	0.17709	0.00023
632.72	0.16975	0.00048
632.76	0.16695	0.00047
632.80	0.18477	0.00047
632.84	0.17922	0.00047
632.88	0.18488	0.00041
632.92	0.18467	0.00044
632.96	0.17525	0.0004
633.0	0.16568	0.00027
633.04	0.17454	0.00051
633.08	0.17235	0.00051
633.12	0.1697	0.00044
633.16	0.16711	0.00023
633.2	0.17149	0.0004
633.24	0.17149	0.00046
633.28	0.1668	0.00042
633.32	0.15845	0.00051
633.36	0.15183	0.00056
633.4	0.15458	0.00036
633.44	0.15361	0.00055
633.48	0.13956	0.00034
633.52	0.13966	0.00055
633.56	0.14068	0.0002
633.6	0.14043	0.0004
633.64	0.13956	0.00052
633.68	0.13758	0.0004
633.72	0.13376	0.00038
633.76	0.12638	0.00046
633.80	0.12923	0.00033
633.84	0.12912	0.00042
633.88	0.12245	0.00032
633.92	0.12057	0.00046
633.96	0.12144	0.00046
634.0	0.11782	0.00048
634.04	0.11869	0.00034
634.08	0.11594	0.00038
634.12	0.11573	0.00038
634.16	0.11584	0.00032
634.2	0.11589	0.00036
634.24	0.11314	0.00046
634.28	0.1083	0.00044
634.32	0.10545	0.00057
634.36	0.1026	0.00039
634.4	0.1028	0.00057
634.44	0.10759	0.00044
634.48	0.10637	0.00034
634.52	0.10728	0.0005
634.56	0.10917	0.00048
634.6	0.10453	0.00031
634.64	0.10576	0.00031
634.68	0.11207	0.00034
634.72	0.11222	0.00042
634.76	0.10906	0.0004
634.80	0.10932	0.00044
634.84	0.11192	0.00051
634.88	0.10621	0.00027
634.92	0.10448	0.00033
634.96	0.10912	0.00044
635.0	0.10927	0.00042
635.04	0.10255	0.00027
635.08	0.10015	0.00044
635.12	0.10082	0.00025
635.16	0.1082	0.00051
635.2	0.10637	0.00041
635.24	0.1084	0.00025
635.28	0.10565	0.00046
635.32	0.1056	0.00053
635.36	0.10362	0.00032
635.4	0.11273	0.00036
635.44	0.10764	0.00048
635.48	0.11024	0.00056
635.52	0.10168	0.00044
635.56	0.10744	0.00041
