Waveleght	Intensity	Error
625.54	0.14603	0.00023
625.58	0.14908	0.00046
625.62	0.14532	0.00048
625.66	0.14516	0.00034
625.7	0.14226	0.00053
625.74	0.14333	0.00032
625.78	0.1527	0.00041
625.82	0.14221	0.00055
625.86	0.15076	0.00041
625.9	0.14501	0.00046
625.94	0.15453	0.00032
625.98	0.15468	0.00051
626.02	0.15738	0.00047
626.06	0.16212	0.00027
626.1	0.16303	0.00023
626.14	0.18101	0.00032
626.18	0.17714	0.00034
626.22	0.18488	0.00034
626.26	0.18488	0.00047
626.3	0.18121	0.00047
626.34	0.19328	0.00036
626.38	0.19429	0.00027
626.42	0.2196	0.00044
626.46	0.22164	0.00031
626.5	0.24215	0.00048
626.54	0.2422	0.00031
626.58	0.25453	0.00041
626.62	0.2865	0.00059
626.66	0.27214	0.00039
626.7	0.30824	0.00042
626.74	0.30447	0.00034
626.78	0.31863	0.00056
626.82	0.31985	0.00033
626.86	0.31964	0.0004
626.9	0.32234	0.00034
626.94	0.32621	0.00031
626.98	0.34755	0.00036
627.02	0.34688	0.00064
627.06	0.33461	0.0004
627.1	0.35712	0.00036
627.14	0.35717	0.00039
627.18	0.34317	0.00041
627.22	0.35656	0.00031
627.26	0.33772	0.00031
627.3	0.33553	0.00069
627.34	0.32448	0.00071
627.38	0.31206	0.00034
627.42	0.31196	0.00031
627.46	0.30641	0.0004
627.5	0.28843	0.00032
627.54	0.29297	0.00036
627.58	0.27235	0.00047
627.62	0.26196	0.00039
627.66	0.23635	0.0004
627.7	0.22729	0.00058
627.74	0.22724	0.0002
627.78	0.21603	0.00031
627.82	0.19704	0.00047
627.86	0.1972	0.0005
627.9	0.17719	0.00041
627.94	0.18116	0.00033
627.98	0.16874	0.00036
628.02	0.16894	0.00033
628.06	0.16568	0.00027
628.1	0.15458	0.00048
628.14	0.15265	0.00046
628.18	0.15372	0.00041
628.22	0.1528	0.00034
628.26	0.15463	0.00038
628.3	0.15255	0.00042
628.34	0.1528	0.00052
628.38	0.14333	0.00039
628.42	0.15555	0.00051
628.46	0.15275	0.00041
628.5	0.14588	0.00039
628.54	0.1443	0.00027
628.58	0.14618	0.00047
628.62	0.14628	0.0005
628.66	0.15102	0.00027
628.7	0.14486	0.00046
628.74	0.14598	0.00044
628.78	0.15107	0.00044
628.82	0.1446	0.00025
628.86	0.14506	0.00025
628.9	0.14491	0.00027
628.94	0.14333	0.00032
628.98	0.14506	0.00034
629.02	0.15178	0.00061
629.06	0.14618	0.00041
629.1	0.14124	0.00036
629.14	0.13921	0.00042
629.18	0.14165	0.0004
629.22	0.14134	0.00042
629.26	0.13758	0.00046
629.3	0.13498	0.00025
629.34	0.13131	0.00047
629.38	0.13213	0.00039
629.42	0.13101	0.00038
629.46	0.13101	0.00044
629.5	0.13065	0.00048
629.54	0.13014	0.00036
629.58	0.12831	0.00041
629.62	0.12505	0.00036
629.66	0.13579	0.00044
629.7	0.1222	0.00025
629.74	0.12454	0.00027
629.78	0.12164	0.00041
629.82	0.12164	0.00047
629.86	0.12337	0.00031
629.9	0.12189	0.00053
629.94	0.11492	0.00059
629.98	0.12276	0.00025
630.02	0.11502	0.00047
630.06	0.11675	0.0005
630.1	0.11691	0.00036
630.14	0.11024	0.00023
630.18	0.11736	0.00039
630.22	0.11217	0.0002
630.26	0.11487	0.00053
630.3	0.11283	0.00048
630.34	0.11125	0.00046
630.38	0.11115	0.00038
630.42	0.11115	0.00044
630.46	0.11222	0.00036
630.5	0.10728	0.00031
630.54	0.10525	0.00031
630.58	0.11024	0.00039
630.62	0.1026	0.00023
630.66	0.10525	0.00044
630.7	0.1054	0.00041
630.74	0.10352	0.00055
630.78	0.10922	0.00046
630.82	0.11217	0.0005
630.86	0.11507	0.00057
630.9	0.1111	0.00056
630.94	0.09893	0.00038
630.98	0.09924	0.00034
631.02	0.10845	0.00047
631.06	0.11095	0.00052
631.1	0.10626	0.00055
631.14	0.10382	0.00034
631.18	0.10708	0.00044
631.22	0.11405	0.00034
631.26	0.114	0.00057
631.3	0.10922	0.00032
631.34	0.10906	0.00051
631.38	0.1052	0.00027
631.42	0.10214	0.00042
631.46	0.10377	0.0004
631.5	0.1057	0.00042
631.54	0.10453	0.00044
631.58	0.10464	0.00023
631.62	0.10275	0.00033
631.66	0.11283	0.00036
631.7	0.10922	0.00039
631.74	0.11207	0.00034
631.78	0.11971	0.00047
631.82	0.11976	0.00033
631.86	0.11996	0.00027
631.9	0.12643	0.00038
631.94	0.13758	0.0004
631.98	0.13493	0.00025
632.02	0.13941	0.0004
632.06	0.13574	0.00027
632.1	0.14694	0.00042
632.14	0.15092	0.00042
632.18	0.15081	0.0004
632.22	0.1498	0.0004
632.26	0.15932	0.00047
632.3	0.15372	0.00025
632.34	0.1638	0.00044
632.38	0.16538	0.00033
632.42	0.17515	0.00047
632.46	0.1753	0.00038
632.5	0.16777	0.00039
632.54	0.16975	0.00036
632.58	0.17418	0.00034
632.62	0.16604	0.00025
632.66	0.17902	0.00036
632.7	0.17805	0.00044
632.74	0.17826	0.00034
632.78	0.18187	0.0004
632.82	0.18014	0.00033
632.86	0.17271	0.0004
632.9	0.17714	0.00052
632.94	0.17622	0.00034
632.98	0.16792	0.00033
633.02	0.16802	0.00052
633.06	0.16777	0.00032
633.1	0.16023	0.00044
633.14	0.16105	0.00038
633.18	0.1641	0.00044
633.22	0.15728	0.00034
633.26	0.14883	0.00038
633.3	0.15647	0.0002
633.34	0.15652	0.00036
633.38	0.15387	0.00046
633.42	0.15107	0.00031
633.46	0.13885	0.0002
633.5	0.14134	0.00042
633.54	0.13305	0.00038
633.58	0.13498	0.00025
633.62	0.13488	0.00052
633.66	0.13666	0.00048
633.7	0.13172	0.00044
633.74	0.13478	0.00038
633.78	0.12536	0.0004
633.82	0.13004	0.00058
633.86	0.12154	0.00038
633.9	0.11787	0.00039
633.94	0.11777	0.0005
633.98	0.11782	0.00042
634.02	0.114	0.00047
634.06	0.11309	0.00034
634.1	0.11309	0.00025
634.14	0.10845	0.00034
634.18	0.10647	0.00025
634.22	0.10647	0.00041
634.26	0.11024	0.00039
634.3	0.10357	0.00042
634.34	0.10647	0.00041
634.38	0.10815	0.00027
634.42	0.10647	0.00047
634.46	0.10912	0.00031
634.5	0.10825	0.00042
634.54	0.10835	0.00033
634.58	0.10723	0.00042
634.62	0.10402	0.00031
634.66	0.11293	0.00056
634.7	0.10642	0.00047
634.74	0.10718	0.00046
634.78	0.11298	0.00034
634.82	0.11283	0.00036
634.86	0.11584	0.00051
634.9	0.10652	0.0004
634.94	0.10922	0.00051
634.98	0.10647	0.00034
635.02	0.1083	0.00044
635.06	0.10657	0.0005
635.1	0.10662	0.00048
635.14	0.10464	0.00032
635.18	0.10738	0.00034
635.22	0.09812	0.00031
635.26	0.1054	0.00025
635.3	0.11029	0.00042
635.34	0.10718	0.00064
635.38	0.10815	0.00048
635.42	0.1084	0.00034
635.46	0.10565	0.00051
635.5	0.1111	0.00033
635.54	0.10927	0.00053
635.58	0.1084	0.00047
635.62	0.10576	0.00038
635.66	0.11044	0.00034
635.7	0.11018	0.00048
635.74	0.10377	0.00046
635.78	0.10744	0.00041
635.82	0.10341	0.00025
635.86	0.10769	0.00039
635.9	0.11029	0.00036
635.94	0.10357	0.00048
635.98	0.10362	0.00023
636.02	0.10744	0.00047
636.06	0.10733	0.00046
636.1	0.10784	0.00033
636.14	0.10642	0.00052
636.18	0.10927	0.00042
636.22	0.11105	0.00034
636.26	0.10922	0.00032
636.3	0.10917	0.00058
636.34	0.10637	0.00034
636.38	0.10744	0.00034
636.42	0.10362	0.00039
636.46	0.11095	0.00052
636.5	0.10642	0.00034
636.54	0.10906	0.00033
636.58	0.10922	0.00051
636.62	0.10922	0.00039
636.66	0.10672	0.00048
636.7	0.10759	0.0005
636.74	0.10443	0.00034
636.78	0.10377	0.00056
636.82	0.1111	0.0004
636.86	0.10015	0.00055
636.9	0.0998	0.00041
636.94	0.11024	0.00046
636.98	0.10367	0.00036
637.02	0.1112	0.00036
637.06	0.10835	0.0004
637.1	0.10285	0.00025
637.14	0.11039	0.00033
637.18	0.11018	0.00042
637.22	0.11212	0.00033
637.26	0.10077	0.00034
637.3	0.10652	0.00033
637.34	0.11604	0.00034
637.38	0.10362	0.00056
637.42	0.11018	0.00048
637.46	0.11044	0.00041
637.5	0.11197	0.00034
637.54	0.10382	0.00052
637.58	0.10453	0.00038
637.62	0.10642	0.00025
637.66	0.10942	0.00057
637.7	0.1052	0.00042
637.74	0.1057	0.00042
637.78	0.10565	0.00046
637.82	0.1111	0.0004
637.86	0.10652	0.00033
637.9	0.11029	0.00036
637.94	0.1057	0.00042
637.98	0.11385	0.0008
638.02	0.10861	0.00044
638.06	0.10856	0.00033
638.1	0.10632	0.00023
638.14	0.10738	0.00047
638.18	0.10662	0.00048
638.22	0.11609	0.00052
638.26	0.10922	0.00032
638.3	0.11492	0.00038
638.34	0.1139	0.00038
638.38	0.11421	0.00044
638.42	0.11293	0.0006
638.46	0.11675	0.00031
638.5	0.11589	0.00048
638.54	0.12072	0.00041
638.58	0.13131	0.00041
638.62	0.12347	0.00032
638.66	0.12368	0.00041
638.7	0.13401	0.00056
638.74	0.13778	0.00036
638.78	0.14445	0.00038
638.82	0.14058	0.00041
638.86	0.14664	0.00034
638.9	0.15555	0.00046
638.94	0.15545	0.00031
638.98	0.1584	0.00034
639.02	0.18182	0.00034
639.06	0.17546	0.00027
639.1	0.18126	0.00041
639.14	0.19531	0.00048
639.18	0.19923	0.00038
639.22	0.18676	0.0004
639.26	0.18661	0.00046
639.3	0.19536	0.00055
639.34	0.20824	0.00041
639.38	0.20738	0.0005
639.42	0.21858	0.00038
639.46	0.2194	0.00025
639.5	0.2112	0.00033
639.54	0.21089	0.00051
639.58	0.22077	0.00042
639.62	0.21135	0.00034
639.66	0.21206	0.00032
639.7	0.20936	0.00033
639.74	0.20458	0.00033
639.78	0.19903	0.00034
639.82	0.19883	0.00032
639.86	0.20183	0.00027
639.9	0.20855	0.00036
639.94	0.19241	0.00034
639.98	0.18946	0.00052
640.02	0.18213	0.0005
640.06	0.17826	0.00025
640.1	0.18477	0.00052
640.14	0.18503	0.00048
640.18	0.18594	0.00033
640.22	0.17734	0.00038
640.26	0.1641	0.00038
640.3	0.17357	0.00047
640.34	0.17143	0.00044
640.38	0.15942	0.00025
640.42	0.15916	0.00036
640.46	0.16583	0.0002
640.5	0.16675	0.00051
640.54	0.15733	0.00034
640.58	0.16583	0.00038
640.62	0.16222	0.00058
640.66	0.16609	0.00046
640.7	0.15932	0.00061
640.74	0.15911	0.00046
640.78	0.16522	0.00039
640.82	0.16395	0.00041
640.86	0.16894	0.0004
640.9	0.17352	0.00033
640.94	0.18141	0.00038
640.98	0.19358	0.0004
641.02	0.19333	0.0002
641.06	0.2	0.0004
641.1	0.20091	0.00058
641.14	0.22922	0.00033
641.18	0.24898	0.00034
641.22	0.25463	0.00034
641.26	0.26537	0.00046
641.3	0.26496	0.00062
641.34	0.29515	0.0005
641.38	0.32234	0.00061
641.42	0.32728	0.0004
641.46	0.36399	0.00047
641.5	0.40437	0.00046
641.54	0.43369	0.00033
641.58	0.48644	0.00036
641.62	0.48629	0.00047
641.66	0.51744	0.00038
641.7	0.5844	0.00056
641.74	0.63317	0.00036
641.78	0.68602	0.00058
641.82	0.72477	0.00051
641.86	0.75511	0.00025
641.9	0.75465	0.0004
641.94	0.8019	0.00041
641.98	0.83459	0.0004
642.02	0.85271	0.00072
642.06	0.8659	0.00031
642.1	0.86498	0.00025
642.14	0.87237	0.00036
642.18	0.87226	0.0004
642.22	0.88026	0.00025
642.26	0.86035	0.00033
642.3	0.84996	0.00027
642.34	0.83851	0.00047
642.38	0.84243	0.00042
642.42	0.82171	0.00025
642.46	0.76682	0.00052
642.5	0.76682	0.00025
642.54	0.77451	0.00033
642.58	0.71036	0.00033
642.62	0.68149	0.00056
642.66	0.64437	0.00027
642.7	0.59952	0.00056
642.74	0.526	0.00047
642.78	0.52585	0.00033
642.82	0.47519	0.0002
642.86	0.4205	0.00034
642.9	0.37361	0.00033
642.94	0.3366	0.00041
642.98	0.30432	0.0005
643.02	0.267	0.00048
643.06	0.2393	0.00034
643.1	0.2391	0.00042
643.14	0.22057	0.00046
643.18	0.2085	0.00046
643.22	0.19908	0.00047
643.26	0.18498	0.00038
643.3	0.16207	0.00031
643.34	0.16222	0.00042
643.38	0.16232	0.00046
643.42	0.16222	0.00058
643.46	0.15275	0.00047
643.5	0.15743	0.00033
643.54	0.15855	0.00036
643.58	0.14511	0.00041
643.62	0.15367	0.00051
643.66	0.15356	0.00042
643.7	0.15285	0.00033
643.74	0.15081	0.0006
643.78	0.14542	0.00053
643.82	0.14898	0.00053
643.86	0.1527	0.00057
643.9	0.14262	0.00034
643.94	0.15662	0.00058
643.98	0.15657	0.00046
644.02	0.15173	0.00041
644.06	0.14791	0.00039
644.1	0.14913	0.00034
644.14	0.147	0.00038
644.18	0.14903	0.00031
644.22	0.15285	0.00033
644.26	0.15285	0.00033
644.3	0.14822	0.00041
644.34	0.14425	0.00031
644.38	0.14598	0.00055
644.42	0.1471	0.00025
644.46	0.15224	0.00047
644.5	0.15356	0.00048
644.54	0.15356	0.00036
644.58	0.14603	0.00051
644.62	0.14496	0.0005
644.66	0.13844	0.00047
644.7	0.1499	0.00048
644.74	0.15076	0.00034
644.78	0.14974	0.00025
644.82	0.14812	0.00041
644.86	0.14827	0.00033
644.9	0.14918	0.00025
644.94	0.14043	0.0004
644.98	0.14796	0.00027
645.02	0.13931	0.00036
645.06	0.14124	0.00053
645.1	0.14501	0.00033
645.14	0.14526	0.00059
645.18	0.13681	0.00044
645.22	0.13926	0.00064
645.26	0.14333	0.00032
645.3	0.14078	0.00039
645.34	0.13747	0.00041
645.38	0.1416	0.00041
645.42	0.14506	0.00034
645.46	0.14521	0.00023
645.5	0.14628	0.00031
645.54	0.14134	0.00042
645.58	0.1471	0.00025
645.62	0.13753	0.00041
645.66	0.1498	0.00046
645.7	0.13498	0.00034
645.74	0.13483	0.00033
645.78	0.13849	0.00041
645.82	0.13294	0.00041
645.86	0.13753	0.00041
645.9	0.14114	0.0006
645.94	0.13865	0.00044
645.98	0.14705	0.00023
646.02	0.14725	0.00046
646.06	0.13844	0.00041
646.1	0.13829	0.00053
646.14	0.13656	0.0004
646.18	0.14796	0.00027
646.22	0.14338	0.00053
646.26	0.13926	0.00046
646.3	0.14603	0.00046
646.34	0.14623	0.0004
646.38	0.14221	0.00068
646.42	0.13951	0.00057
646.46	0.14129	0.00046
646.5	0.14435	0.00051
646.54	0.136	0.00052
646.58	0.14425	0.00055
646.62	0.14425	0.00031
646.66	0.13849	0.00041
646.7	0.14343	0.0002
646.74	0.13971	0.00036
646.78	0.14598	0.00055
646.82	0.14328	0.00036
646.86	0.14267	0.00046
646.9	0.14114	0.00102
646.94	0.14043	0.0004
646.98	0.1472	0.00041
647.02	0.13941	0.0004
647.06	0.14139	0.00044
647.1	0.14252	0.00065
647.14	0.14038	0.0005
647.18	0.14603	0.00046
647.22	0.14623	0.0004
647.26	0.14338	0.00042
647.3	0.13676	0.00042
647.34	0.14185	0.00062
647.38	0.14913	0.00034
647.42	0.13579	0.00055
647.46	0.13778	0.00048
647.5	0.13747	0.00047
647.54	0.14328	0.00015
647.58	0.1444	0.00036
647.62	0.14017	0.0005
647.66	0.14715	0.00025
647.7	0.14796	0.00058
647.74	0.14134	0.00036
647.78	0.14694	0.00027
647.82	0.14689	0.00039
647.86	0.14246	0.00046
647.9	0.14313	0.00041
647.94	0.14063	0.00033
647.98	0.15097	0.00056
648.02	0.14236	0.00042
648.06	0.14908	0.0004
648.1	0.14888	0.00048
648.14	0.14501	0.00023
648.18	0.1471	0.00041
648.22	0.14333	0.00039
648.26	0.1444	0.00042
648.3	0.14318	0.00033
648.34	0.14608	0.00047
648.38	0.14628	0.00038
648.42	0.1444	0.00027
648.46	0.14725	0.00051
648.5	0.14496	0.00044
648.54	0.14603	0.00065
648.58	0.14974	0.00041
648.62	0.14613	0.00041
648.66	0.15458	0.00048
648.7	0.15468	0.00051
648.74	0.14521	0.0004
648.78	0.15565	0.00031
648.82	0.14603	0.00046
648.86	0.14969	0.00025
648.9	0.15555	0.00056
648.94	0.14985	0.00044
648.98	0.1499	0.00027
649.02	0.13941	0.00051
649.06	0.13401	0.0004
649.1	0.14898	0.00036
649.14	0.15204	0.00058
649.18	0.14613	0.00034
649.22	0.14806	0.00033
649.26	0.15102	0.00027
649.3	0.15071	0.00041
649.34	0.13941	0.0004
649.38	0.14328	0.00036
649.42	0.14715	0.00047
649.46	0.14221	0.00031
649.5	0.14603	0.0004
649.54	0.147	0.0002
649.58	0.14715	0.00052
649.62	0.14526	0.00038
649.66	0.14323	0.00031
649.7	0.14593	0.00036
649.74	0.14806	0.00051
649.78	0.14608	0.00034
649.82	0.14033	0.00042
649.86	0.14048	0.00041
649.9	0.14705	0.0004
649.94	0.14516	0.00047
649.98	0.14516	0.00047
650.02	0.14414	0.00047
650.06	0.15275	0.00041
650.1	0.15183	0.00033
650.14	0.14995	0.00046
650.18	0.15005	0.00031
650.22	0.14211	0.00041
650.26	0.14124	0.00036
650.3	0.14608	0.00041
650.34	0.14481	0.00036
650.38	0.1499	0.00036
650.42	0.15173	0.00034
650.46	0.15178	0.00034
650.5	0.14338	0.00027
650.54	0.15	0.00036
650.58	0.14868	0.00047
650.62	0.14806	0.00033
650.66	0.14267	0.00023
650.7	0.14231	0.00046
650.74	0.14246	0.00046
650.78	0.14898	0.00058
650.82	0.14888	0.00027
650.86	0.15112	0.00046
650.9	0.15183	0.00033
650.94	0.14221	0.00038
650.98	0.14323	0.00044
651.02	0.14888	0.00042
651.06	0.14898	0.00036
651.1	0.14435	0.00032
651.14	0.14827	0.00033
651.18	0.14338	0.00027
651.22	0.14796	0.00042
651.26	0.14613	0.00052
651.3	0.14313	0.00034
651.34	0.14343	0.00031
651.38	0.14598	0.00031
651.42	0.14969	0.00041
651.46	0.14333	0.00039
651.5	0.14995	0.00032
651.54	0.1443	0.00053
651.58	0.13941	0.0004
651.62	0.14898	0.00036
651.66	0.14913	0.00041
651.7	0.14628	0.00038
651.74	0.14226	0.00042
651.78	0.14328	0.00042
651.82	0.14791	0.00046
651.86	0.14593	0.00036
651.9	0.14145	0.00046
651.94	0.1417	0.00038
651.98	0.14623	0.00033
652.02	0.14613	0.00052
652.06	0.14924	0.00041
652.1	0.14812	0.00041
652.14	0.14328	0.00066
652.18	0.13498	0.00034
652.22	0.13483	0.00023
652.26	0.14414	0.00041
652.3	0.15555	0.00032
652.34	0.13381	0.0004
652.38	0.14119	0.00038
652.42	0.14435	0.00039
652.46	0.14409	0.00061
652.5	0.13783	0.0002
652.54	0.13763	0.0002
652.58	0.13676	0.00027
652.62	0.14638	0.00051
652.66	0.13595	0.00041
652.7	0.14328	0.00036
652.74	0.15285	0.00051
652.78	0.14705	0.00033
652.82	0.14715	0.00041
652.86	0.15076	0.00034
652.9	0.14801	0.0005
652.94	0.14252	0.00047
652.98	0.14134	0.00048
653.02	0.14903	0.00059
653.06	0.14985	0.00038
653.1	0.14985	0.00031
653.14	0.14343	0.00038
653.18	0.15076	0.00041
653.22	0.14715	0.00034
653.26	0.14674	0.00046
653.3	0.14476	0.0005
653.34	0.14231	0.00051
653.38	0.14308	0.00034
653.42	0.14348	0.0004
653.46	0.15071	0.00041
653.5	0.14812	0.00047
653.54	0.15377	0.00034
653.58	0.15092	0.00042
653.62	0.16227	0.0002
653.66	0.15168	0.00057
653.7	0.15183	0.0004
653.74	0.15743	0.00046
653.78	0.15937	0.00052
653.82	0.1612	0.00036
653.86	0.15351	0.00051
653.9	0.1582	0.00068
653.94	0.16146	0.00041
653.98	0.164	0.00047
654.02	0.16415	0.00027
654.06	0.15825	0.00056
654.1	0.1695	0.00047
654.14	0.16146	0.00034
654.18	0.16497	0.00052
654.22	0.17719	0.00025
654.26	0.17541	0.00023
654.3	0.17556	0.00023
654.34	0.16792	0.0004
654.38	0.18116	0.00033
654.42	0.18294	0.00044
654.46	0.19491	0.00023
654.5	0.19063	0.00058
654.54	0.20351	0.00044
654.58	0.20315	0.00041
654.62	0.20061	0.00052
654.66	0.21522	0.0005
654.7	0.23462	0.00051
654.74	0.24042	0.0004
654.78	0.26221	0.00041
654.82	0.25743	0.00048
654.86	0.29225	0.00052
654.9	0.29235	0.0004
654.94	0.30167	0.00032
654.98	0.31511	0.00057
655.02	0.34709	0.00031
655.06	0.36934	0.00036
655.1	0.4176	0.00023
655.14	0.43278	0.00041
655.18	0.43278	0.00041
655.22	0.44683	0.00048
655.26	0.48089	0.00051
655.3	0.48287	0.00042
655.34	0.49484	0.00034
655.38	0.51454	0.00036
655.42	0.504	0.00065
655.46	0.51358	0.00038
655.5	0.51363	0.00033
655.54	0.51383	0.0004
655.58	0.51103	0.00044
655.62	0.50619	0.00033
655.66	0.5149	0.00031
655.7	0.49138	0.00025
655.74	0.48104	0.00033
655.78	0.48094	0.00027
655.82	0.47514	0.0004
655.86	0.46561	0.00051
655.9	0.44754	0.00041
655.94	0.43451	0.00036
655.98	0.42524	0.00046
656.02	0.39225	0.00053
656.06	0.39235	0.00048
656.1	0.37728	0.00057
656.14	0.34108	0.00041
656.18	0.30717	0.00038
656.22	0.29872	0.0005
656.26	0.26201	0.00058
656.3	0.24302	0.00038
656.34	0.21497	0.00046
656.38	0.21491	0.00041
656.42	0.20341	0.00051
656.46	0.18747	0.00056
656.5	0.18488	0.00041
656.54	0.17164	0.00047
656.58	0.16874	0.00053
656.62	0.16202	0.00046
656.66	0.16212	0.00015
656.7	0.15367	0.0004
656.74	0.15458	0.00036
656.78	0.15295	0.00042
656.82	0.15295	0.00027
656.86	0.15158	0.00059
656.9	0.15336	0.0004
656.94	0.15367	0.0004
656.98	0.15641	0.00046
657.02	0.1499	0.00042
657.06	0.15188	0.0005
657.1	0.15468	0.00033
657.14	0.15367	0.00023
657.18	0.15372	0.00034
657.22	0.15163	0.00033
657.26	0.15209	0.00038
657.3	0.14435	0.00039
657.34	0.15372	0.00025
657.38	0.15015	0.00025
657.42	0.15173	0.00041
657.46	0.1498	0.00023
657.5	0.14974	0.00034
657.54	0.14964	0.00034
657.58	0.1501	0.00046
657.62	0.1554	0.0004
657.66	0.14817	0.00041
657.7	0.15367	0.00033
657.74	0.14618	0.00041
657.78	0.14806	0.00051
657.82	0.14781	0.00038
657.86	0.14786	0.00036
657.9	0.15214	0.00051
657.94	0.15005	0.00031
657.98	0.1584	0.00047
658.02	0.1528	0.00034
658.06	0.1498	0.0004
658.1	0.15361	0.00031
658.14	0.15361	0.00044
658.18	0.15631	0.00041
658.22	0.1529	0.0002
658.26	0.1528	0.00041
658.3	0.14806	0.0004
658.34	0.15275	0.00034
658.38	0.15738	0.00034
658.42	0.15748	0.00044
658.46	0.15382	0.00025
658.5	0.15255	0.00048
658.54	0.16018	0.00048
658.58	0.15183	0.00051
658.62	0.15458	0.00042
658.66	0.14715	0.00047
658.7	0.1583	0.00052
658.74	0.1583	0.00025
658.78	0.14903	0.00064
658.82	0.15377	0.00034
658.86	0.1526	0.00038
658.9	0.16522	0.00046
658.94	0.1641	0.00044
658.98	0.1583	0.00025
659.02	0.15809	0.00039
659.06	0.16655	0.00061
659.1	0.17154	0.00041
659.14	0.16884	0.00036
659.18	0.16685	0.00031
659.22	0.17347	0.00031
659.26	0.16507	0.0004
659.3	0.16487	0.0004
659.34	0.1694	0.00038
659.38	0.16797	0.00041
659.42	0.17271	0.00051
659.46	0.17744	0.00032
659.5	0.18029	0.00047
659.54	0.19618	0.00044
659.58	0.18752	0.00038
659.62	0.18762	0.00032
659.66	0.19893	0.00038
659.7	0.19037	0.00034
659.74	0.21206	0.00046
659.78	0.20285	0.00042
659.82	0.21059	0.00042
659.86	0.2196	0.00044
659.9	0.21965	0.00062
659.94	0.22179	0.00042
659.98	0.23004	0.0004
660.02	0.22255	0.00034
660.06	0.2365	0.00032
660.1	0.23284	0.0002
660.14	0.2419	0.00052
660.18	0.25076	0.00039
660.22	0.25086	0.0005
660.26	0.25269	0.0005
660.3	0.25453	0.00061
660.34	0.25845	0.00036
660.38	0.25173	0.00027
660.42	0.26308	0.00038
660.46	0.2753	0.0002
660.5	0.27509	0.00038
660.54	0.27056	0.00027
660.58	0.267	0.00036
660.62	0.26308	0.00031
660.66	0.25824	0.0004
660.7	0.25824	0.00046
660.74	0.26211	0.00046
660.78	0.26206	0.00044
660.82	0.25203	0.00052
660.86	0.25096	0.00034
660.9	0.24129	0.00041
660.94	0.24714	0.00027
660.98	0.23564	0.0004
661.02	0.23849	0.00027
661.06	0.23289	0.00042
661.1	0.23273	0.00034
661.14	0.22627	0.00042
661.18	0.21105	0.00051
661.22	0.22245	0.00047
661.26	0.20931	0.00047
661.3	0.2084	0.0005
661.34	0.19511	0.00051
661.38	0.19536	0.00031
661.42	0.20249	0.00038
661.46	0.19419	0.00036
661.5	0.19348	0.00041
661.54	0.18289	0.00051
661.58	0.18187	0.00051
661.62	0.16863	0.0006
661.66	0.16858	0.00041
661.7	0.17561	0.00025
661.74	0.17994	0.00036
661.78	0.17734	0.00044
661.82	0.17255	0.00052
661.86	0.16135	0.00034
661.9	0.16532	0.00031
661.94	0.16426	0.00048
661.98	0.1639	0.00034
662.02	0.16415	0.00058
662.06	0.16507	0.00033
662.1	0.15815	0.00048
662.14	0.15453	0.00051
662.18	0.15377	0.00041
662.22	0.16003	0.00038
662.26	0.16018	0.00042
662.3	0.15178	0.00041
662.34	0.15606	0.00046
662.38	0.14506	0.00041
662.42	0.15387	0.00046
662.46	0.14873	0.00034
662.5	0.15005	0.00055
662.54	0.15458	0.00042
662.58	0.15468	0.00051
662.62	0.14603	0.00072
662.66	0.14974	0.00041
662.7	0.14537	0.00032
662.74	0.14414	0.00065
662.78	0.15443	0.00031
662.82	0.14694	0.00027
662.86	0.14715	0.00025
662.9	0.15275	0.00041
662.94	0.14633	0.00042
662.98	0.15692	0.00051
663.02	0.14781	0.00031
663.06	0.15575	0.00041
663.1	0.14313	0.00034
663.14	0.14353	0.00041
663.18	0.13966	0.0005
663.22	0.14445	0.00031
663.26	0.15092	0.00027
663.3	0.14017	0.00038
663.34	0.13493	0.00025
663.38	0.14063	0.0004
663.42	0.14633	0.00053
663.46	0.14593	0.00048
663.5	0.13753	0.00047
663.54	0.13595	0.00025
663.58	0.14903	0.00031
663.62	0.14603	0.00033
663.66	0.15153	0.00036
663.7	0.13839	0.00051
663.74	0.13859	0.00033
663.78	0.14806	0.00046
663.82	0.14801	0.00044
663.86	0.13498	0.00041
663.9	0.14694	0.00042
663.94	0.14048	0.00034
663.98	0.14048	0.00041
664.02	0.14496	0.00044
664.06	0.14532	0.00042
664.1	0.14012	0.00033
664.14	0.14027	0.00068
664.18	0.14206	0.00034
664.22	0.14593	0.00058
664.26	0.14109	0.00047
664.3	0.13753	0.00052
664.34	0.13758	0.00023
664.38	0.14618	0.00041
664.42	0.14806	0.00033
664.46	0.13661	0.00044
664.5	0.14425	0.00031
664.54	0.14608	0.00052
664.58	0.13885	0.0002
664.62	0.13844	0.00052
664.66	0.14333	0.00046
664.7	0.13478	0.0002
664.74	0.13926	0.00046
664.78	0.14124	0.00036
664.82	0.14313	0.00034
664.86	0.13585	0.00046
664.9	0.14521	0.0004
664.94	0.14532	0.00042
664.98	0.13732	0.00038
665.02	0.14048	0.00047
665.06	0.13844	0.00041
665.1	0.14252	0.00047
665.14	0.13926	0.00023
665.18	0.14048	0.00034
665.22	0.14073	0.00042
665.26	0.14694	0.00048
665.3	0.14221	0.00044
665.34	0.13941	0.0004
665.38	0.14323	0.0005
665.42	0.14033	0.00042
665.46	0.13758	0.0004
665.5	0.13747	0.00057
665.54	0.13391	0.00041
665.58	0.14241	0.00044
665.62	0.14435	0.00056
665.66	0.14134	0.00027
665.7	0.14221	0.00038
665.74	0.13849	0.00034
665.78	0.14506	0.00025
665.82	0.14496	0.00044
665.86	0.13951	0.00052
665.9	0.14684	0.00042
665.94	0.14898	0.00036
665.98	0.13732	0.00038
666.02	0.13961	0.0006
666.06	0.13875	0.00046
666.1	0.13875	0.00032
666.14	0.14822	0.00057
666.18	0.13936	0.0005
666.22	0.14435	0.00051
666.26	0.13859	0.00023
666.3	0.14211	0.00047
666.34	0.13666	0.00042
666.38	0.14318	0.00046
666.42	0.14348	0.00033
666.46	0.13854	0.00041
666.5	0.1333	0.00023
666.54	0.15097	0.00032
666.58	0.15086	0.00044
666.62	0.14124	0.00027
666.66	0.14063	0.00033
666.7	0.14033	0.00058
666.74	0.14221	0.00038
666.78	0.14027	0.00039
666.82	0.14328	0.00027
666.86	0.14012	0.00033
666.9	0.14236	0.00048
666.94	0.14343	0.00055
666.98	0.14323	0.00038
667.02	0.14043	0.00046
667.06	0.1442	0.00056
667.1	0.14786	0.00053
667.14	0.1389	0.00023
667.18	0.13865	0.00031
667.22	0.14491	0.00027
667.26	0.13666	0.00053
667.3	0.13671	0.00032
667.34	0.13865	0.00044
667.38	0.14145	0.00033
667.42	0.14145	0.00033
667.46	0.13737	0.00033
667.5	0.13747	0.00041
667.54	0.13294	0.00025
667.58	0.1332	0.00042
667.62	0.13279	0.0004
667.66	0.14048	0.00041
667.7	0.13024	0.00056
667.74	0.13961	0.00046
667.78	0.14221	0.00044
667.82	0.14134	0.00036
667.86	0.14124	0.00062
667.9	0.14226	0.00036
667.94	0.14806	0.00051
667.98	0.14348	0.00046
668.02	0.14333	0.00046
668.06	0.14343	0.0005
668.1	0.14022	0.0007
668.14	0.13921	0.00036
668.18	0.13961	0.0004
668.22	0.14781	0.0005
668.26	0.13859	0.00051
668.3	0.14414	0.00041
668.34	0.13686	0.00023
668.38	0.14801	0.0005
668.42	0.13921	0.00036
668.46	0.13926	0.00032
668.5	0.13381	0.00046
668.54	0.14252	0.00041
668.58	0.14134	0.00036
668.62	0.13946	0.00052
668.66	0.14058	0.00034
668.7	0.13676	0.00042
668.74	0.14486	0.00039
668.78	0.14562	0.00025
668.82	0.14608	0.00034
668.86	0.14139	0.00038
668.9	0.13483	0.0004
668.94	0.14333	0.00046
668.98	0.14338	0.00036
669.02	0.13951	0.00041
669.06	0.13936	0.00044
669.1	0.13742	0.00034
669.14	0.13859	0.00051
669.18	0.13931	0.00036
669.22	0.14323	0.00038
669.26	0.13763	0.00031
669.3	0.1444	0.00042
669.34	0.1446	0.00041
669.38	0.13941	0.00051
669.42	0.13768	0.00027
669.46	0.13671	0.00046
669.5	0.13956	0.00041
669.54	0.14063	0.0004
669.58	0.13315	0.00039
669.62	0.13661	0.00031
669.66	0.13661	0.00031
669.7	0.136	0.00041
669.74	0.14369	0.00033
669.78	0.14038	0.00038
669.82	0.14333	0.00032
669.86	0.14694	0.00027
669.9	0.14048	0.00041
669.94	0.14022	0.00048
669.98	0.14425	0.0005
670.02	0.14501	0.00033
670.06	0.14241	0.00044
670.1	0.13992	0.00046
670.14	0.13956	0.00041
670.18	0.14068	0.00044
670.22	0.14017	0.00154
670.26	0.13615	0.00036
670.3	0.13941	0.00046
670.34	0.1473	0.00059
670.38	0.14033	0.00036
670.42	0.14918	0.00052
670.46	0.14506	0.00034
670.5	0.14837	0.00042
670.54	0.14817	0.00034
670.58	0.1416	0.00052
670.62	0.14521	0.00033
670.66	0.14353	0.00034
670.7	0.13956	0.00034
670.74	0.153	0.00023
670.78	0.14618	0.00047
670.82	0.14608	0.00041
670.86	0.14022	0.00042
670.9	0.1443	0.00036
670.94	0.14705	0.00033
670.98	0.14058	0.00034
671.02	0.14048	0.00025
671.06	0.15484	0.00047
671.1	0.14715	0.00025
671.14	0.14689	0.00023
671.18	0.14516	0.00034
671.22	0.14328	0.00042
671.26	0.14715	0.00034
671.3	0.13875	0.00046
671.34	0.1501	0.00046
671.38	0.13849	0.00041
671.42	0.13839	0.00033
671.46	0.15117	0.00034
671.5	0.13941	0.00046
671.54	0.14974	0.00047
671.58	0.14516	0.00034
671.62	0.14445	0.00038
671.66	0.1415	0.00041
671.7	0.14134	0.00042
671.74	0.15005	0.00055
671.78	0.13768	0.00053
671.82	0.1471	0.00025
671.86	0.14995	0.00032
671.9	0.14333	0.00039
671.94	0.14776	0.0004
671.98	0.14511	0.00025
672.02	0.14511	0.00041
672.06	0.14058	0.00025
672.1	0.15107	0.00044
672.14	0.13747	0.00034
672.18	0.13574	0.00048
672.22	0.13966	0.00059
672.26	0.14048	0.00034
672.3	0.14043	0.00033
672.34	0.14353	0.00047
672.38	0.14139	0.00038
672.42	0.14129	0.00056
672.46	0.14608	0.00057
672.5	0.14114	0.00046
672.54	0.13829	0.00042
672.58	0.14119	0.00031
672.62	0.14134	0.00042
672.66	0.14796	0.00058
672.7	0.13366	0.00039
672.74	0.14516	0.00025
672.78	0.13854	0.00041
672.82	0.15183	0.0004
672.86	0.14435	0.00032
672.9	0.14399	0.00051
672.94	0.13401	0.00051
672.98	0.14043	0.00033
673.02	0.13865	0.00044
673.06	0.13315	0.00032
673.1	0.14058	0.00041
673.14	0.1415	0.00041
673.18	0.14124	0.00036
673.22	0.13854	0.00041
673.26	0.13753	0.00041
673.3	0.14257	0.00047
673.34	0.13941	0.00033
673.38	0.14333	0.00072
673.42	0.14038	0.00044
673.46	0.13936	0.0005
673.5	0.13956	0.00061
673.54	0.13844	0.00052
673.58	0.14333	0.00032
673.62	0.14231	0.00046
673.66	0.14521	0.00033
673.7	0.13493	0.00025
673.74	0.14526	0.00031
673.78	0.14532	0.00027
673.82	0.13671	0.00046
673.86	0.14236	0.00036
673.9	0.14358	0.00041
673.94	0.14048	0.00034
673.98	0.13758	0.0004
674.02	0.13686	0.00033
674.06	0.13661	0.00031
674.1	0.13742	0.00034
674.14	0.13854	0.00041
674.18	0.14241	0.00044
674.22	0.14343	0.0005
674.26	0.14236	0.00048
674.3	0.1332	0.00036
674.34	0.13956	0.00034
674.38	0.13946	0.00057
674.42	0.13574	0.00048
674.46	0.14333	0.00039
674.5	0.13666	0.00027
674.54	0.14694	0.00015
674.58	0.13503	0.0004
674.62	0.14027	0.00039
674.66	0.14053	0.00047
674.7	0.13865	0.00031
674.74	0.13854	0.00034
674.78	0.14068	0.00044
674.82	0.1501	0.00046
674.86	0.13758	0.00033
674.9	0.13503	0.00033
674.94	0.13854	0.00041
674.98	0.13839	0.00046
675.02	0.13579	0.0002
675.06	0.13457	0.00031
675.1	0.14501	0.00033
675.14	0.14985	0.0005
675.18	0.13376	0.00044
675.22	0.14033	0.00048
675.26	0.14053	0.00041
675.3	0.14134	0.00058
675.34	0.14526	0.0005
675.38	0.14516	0.00041
675.42	0.14511	0.00041
675.46	0.14038	0.00038
675.5	0.13946	0.00041
675.54	0.13946	0.00041
675.58	0.14308	0.00057
675.62	0.14053	0.00047
675.66	0.13478	0.00044
675.7	0.1471	0.00041
675.74	0.14124	0.00036
675.78	0.13513	0.00053
675.82	0.14033	0.00042
675.86	0.14063	0.0004
675.9	0.13961	0.0004
675.94	0.136	0.00034
675.98	0.14216	0.00051
676.02	0.14593	0.00048
676.06	0.14425	0.00031
676.1	0.14506	0.00047
676.14	0.14526	0.00038
676.18	0.14043	0.00033
676.22	0.14618	0.00052
676.26	0.13493	0.00047
676.3	0.14027	0.00039
676.34	0.13865	0.0002
676.38	0.14425	0.00038
676.42	0.1445	0.0004
676.46	0.13961	0.00051
676.5	0.14038	0.00055
676.54	0.13182	0.00041
676.58	0.13203	0.0005
676.62	0.13661	0.00038
676.66	0.13971	0.00048
676.7	0.14109	0.00047
676.74	0.14119	0.00038
676.78	0.13854	0.00025
676.82	0.14328	0.00036
676.86	0.13844	0.00041
676.9	0.14532	0.00036
676.94	0.14532	0.00027
676.98	0.13391	0.00052
677.02	0.13386	0.00041
677.06	0.13732	0.00038
677.1	0.14404	0.00041
677.14	0.14506	0.00025
677.18	0.14318	0.0004
677.22	0.13763	0.00038
677.26	0.14806	0.00051
677.3	0.14506	0.00047
677.34	0.14516	0.00052
677.38	0.13595	0.00047
677.42	0.13941	0.0004
677.46	0.14053	0.00047
677.5	0.13681	0.00031
677.54	0.13747	0.00041
677.58	0.14526	0.00044
677.62	0.14511	0.00047
677.66	0.1445	0.00033
677.7	0.14246	0.00056
677.74	0.13478	0.0002
677.78	0.14058	0.00041
677.82	0.14598	0.00031
677.86	0.15204	0.00048
677.9	0.15188	0.00031
677.94	0.13498	0.00047
677.98	0.13758	0.00033
678.02	0.14257	0.00034
678.06	0.1387	0.00042
678.1	0.14252	0.00047
678.14	0.14338	0.00058
678.18	0.14613	0.00047
678.22	0.14582	0.00042
678.26	0.14114	0.00068
678.3	0.1526	0.00068
678.34	0.1446	0.00041
678.38	0.13966	0.00044
678.42	0.14058	0.00034
678.46	0.1415	0.00034
678.5	0.14134	0.00053
678.54	0.13778	0.00042
678.58	0.14348	0.0004
678.62	0.14114	0.00033
678.66	0.14328	0.00048
678.7	0.14114	0.00023
678.74	0.13931	0.00048
678.78	0.14226	0.00036
678.82	0.14246	0.0004
678.86	0.14435	0.00039
678.9	0.13778	0.00015
678.94	0.14689	0.00039
678.98	0.13941	0.00033
679.02	0.13859	0.00033
679.06	0.14134	0.00036
679.1	0.14119	0.00031
679.14	0.13849	0.00047
679.18	0.13971	0.00036
679.22	0.13849	0.00034
679.26	0.14445	0.00044
679.3	0.13824	0.00051
679.34	0.14358	0.00047
679.38	0.14333	0.00039
679.42	0.14119	0.00055
679.46	0.13854	0.00047
679.5	0.14226	0.00036
679.54	0.14343	0.0005
679.58	0.14613	0.00041
679.62	0.13941	0.00046
679.66	0.14796	0.00015
679.7	0.14801	0.00044
679.74	0.15168	0.00052
679.78	0.13483	0.00051
679.82	0.14633	0.00042
679.86	0.13681	0.00031
679.9	0.14822	0.00047
679.94	0.13946	0.00047
679.98	0.13977	0.00056
680.02	0.13956	0.00052
680.06	0.13859	0.00056
680.1	0.13686	0.0004
680.14	0.14053	0.00025
680.18	0.13849	0.00047
680.22	0.1331	0.00042
680.26	0.13284	0.00057
680.3	0.14796	0.00053
680.34	0.14705	0.0004
680.38	0.13681	0.00059
680.42	0.136	0.00061
680.46	0.14348	0.00023
