Waveleght	Intensity	Error
625.43	0.12439	0.00059
625.48	0.1304	0.00034
625.52	0.12912	0.00048
625.56	0.12836	0.00047
625.6	0.12826	0.00034
625.64	0.12831	0.00047
625.68	0.12383	0.00033
625.72	0.13228	0.00033
625.76	0.13564	0.00042
625.8	0.13854	0.00041
625.84	0.13121	0.00044
625.88	0.13101	0.0005
625.92	0.13366	0.00046
625.95	0.14506	0.00041
626.0	0.13956	0.00047
626.04	0.1501	0.00056
626.07	0.15529	0.00047
626.12	0.16487	0.00056
626.16	0.16802	0.00047
626.19	0.16777	0.00051
626.24	0.17632	0.0002
626.28	0.18869	0.00027
626.31	0.18834	0.00041
626.36	0.2055	0.00048
626.4	0.20544	0.00046
626.43	0.22041	0.00025
626.48	0.22062	0.00038
626.52	0.23553	0.00027
626.56	0.24241	0.00041
626.6	0.2501	0.00051
626.64	0.25269	0.00031
626.68	0.26781	0.00047
626.72	0.27433	0.00046
626.76	0.27423	0.00053
626.8	0.28166	0.0004
626.84	0.27545	0.00047
626.88	0.2836	0.00034
626.92	0.2866	0.00061
626.95	0.29796	0.00051
627.0	0.28635	0.00036
627.04	0.29042	0.00036
627.07	0.29022	0.00047
627.12	0.28563	0.00034
627.16	0.29969	0.00036
627.19	0.28095	0.00046
627.24	0.2725	0.0004
627.28	0.26955	0.00042
627.31	0.26685	0.00041
627.36	0.2669	0.00033
627.4	0.24775	0.00027
627.43	0.245	0.00046
627.48	0.24119	0.00031
627.52	0.22454	0.00047
627.56	0.21303	0.00053
627.6	0.19893	0.00038
627.64	0.18869	0.00036
627.68	0.18869	0.00036
627.72	0.18864	0.00039
627.76	0.16787	0.00044
627.8	0.16212	0.00048
627.84	0.1584	0.00041
627.88	0.15275	0.00047
627.92	0.15086	0.00055
627.95	0.15076	0.00041
628.0	0.14409	0.00034
628.04	0.14114	0.00033
628.07	0.13778	0.00058
628.12	0.13747	0.00025
628.16	0.13859	0.00023
628.19	0.13559	0.00031
628.24	0.1363	0.00044
628.28	0.13391	0.00047
628.31	0.13758	0.00046
628.36	0.13498	0.00025
628.4	0.13294	0.00041
628.43	0.13457	0.00044
628.48	0.14338	0.00027
628.52	0.13289	0.00041
628.56	0.13299	0.00056
628.6	0.13381	0.00046
628.64	0.13396	0.00034
628.68	0.13294	0.00047
628.72	0.12454	0.00042
628.76	0.13386	0.00047
628.8	0.12841	0.00056
628.84	0.12826	0.00047
628.88	0.13574	0.00036
628.92	0.12526	0.00025
628.95	0.13381	0.0004
629.0	0.12907	0.00032
629.04	0.12918	0.00031
629.07	0.13126	0.00056
629.12	0.13106	0.00053
629.16	0.12907	0.00039
629.19	0.12342	0.00062
629.24	0.12159	0.00046
629.28	0.12251	0.00048
629.31	0.12352	0.00048
629.36	0.12169	0.00034
629.4	0.11884	0.00042
629.43	0.11874	0.00023
629.48	0.12638	0.0004
629.52	0.11584	0.00046
629.56	0.11298	0.00041
629.6	0.11864	0.00034
629.64	0.12083	0.00044
629.68	0.11986	0.00036
629.72	0.11981	0.00038
629.76	0.11288	0.0005
629.8	0.1109	0.00023
629.84	0.11431	1.38778e-17
629.88	0.11293	0.00046
629.92	0.10932	0.0005
629.95	0.10362	0.00039
630.0	0.10937	0.00046
630.04	0.10896	0.00041
630.07	0.10744	0.00041
630.12	0.10306	0.00053
630.16	0.11339	0.0002
630.19	0.11288	0.00038
630.24	0.11512	0.00047
630.28	0.10464	0.00023
630.31	0.10474	0.0002
630.36	0.1052	0.00062
630.4	0.10494	0.00034
630.43	0.1083	0.0002
630.48	0.10535	0.00047
630.52	0.11018	0.00027
630.56	0.11018	0.00058
630.6	0.11013	0.00044
630.64	0.11024	0.00039
630.68	0.10464	0.00032
630.72	0.10163	0.00036
630.76	0.1111	0.00033
630.8	0.10642	0.00034
630.84	0.10652	0.00033
630.88	0.0999	0.00046
630.92	0.09995	0.00031
630.95	0.11212	0.00033
631.0	0.1082	0.00039
631.04	0.10357	0.00048
631.07	0.10632	0.00023
631.12	0.10453	0.00038
631.16	0.1001	0.00042
631.19	0.10005	0.00039
631.24	0.09898	0.00048
631.28	0.10469	0.00027
631.31	0.1084	0.00025
631.36	0.10754	0.00033
631.4	0.1056	0.00058
631.43	0.10199	0.00044
631.48	0.10178	0.00057
631.52	0.10112	0.00036
631.56	0.10723	0.00048
631.6	0.10657	0.00031
631.64	0.10988	0.00033
631.68	0.10657	0.00031
631.72	0.11039	0.00023
631.76	0.10932	0.00038
631.8	0.10932	0.00071
631.84	0.10759	0.00044
631.88	0.11095	0.00041
631.92	0.11034	0.0005
631.95	0.11222	0.00027
632.0	0.12072	0.00041
632.04	0.10927	0.00036
632.07	0.10912	0.00038
632.12	0.11227	0.00056
632.16	0.10723	0.00048
632.19	0.12088	0.00027
632.24	0.11797	0.00044
632.28	0.11614	0.00041
632.31	0.12358	0.00059
632.36	0.11502	0.00052
632.4	0.11502	0.00034
632.43	0.1247	0.00041
632.48	0.11309	0.00041
632.52	0.12261	0.0004
632.56	0.12449	0.00051
632.6	0.12352	0.00042
632.64	0.12419	0.00041
632.68	0.12439	0.00044
632.72	0.12464	0.00023
632.76	0.13045	0.0004
632.8	0.12907	0.00032
632.84	0.12582	0.00057
632.88	0.12918	0.0005
632.92	0.12856	0.00032
632.95	0.12836	0.00041
633.0	0.12439	0.00059
633.04	0.13299	0.00051
633.07	0.12551	0.00032
633.12	0.12235	0.0002
633.16	0.12434	0.00033
633.19	0.12261	0.00046
633.24	0.12429	0.00034
633.28	0.1247	0.00025
633.31	0.12118	0.00034
633.36	0.11696	0.00031
633.4	0.11889	0.00051
633.43	0.12149	0.00042
633.48	0.11517	0.00046
633.52	0.12062	0.00034
633.56	0.12047	0.00027
633.6	0.11212	0.00033
633.64	0.11609	0.00052
633.68	0.11848	0.00044
633.72	0.1109	0.0004
633.76	0.11222	0.00027
633.8	0.11797	0.00055
633.84	0.11675	0.0002
633.88	0.11675	0.0005
633.92	0.1055	0.00051
633.95	0.1111	0.0004
634.0	0.1053	0.00046
634.04	0.10469	0.00048
634.07	0.10555	0.00038
634.12	0.10906	0.0004
634.16	0.10917	0.00036
634.19	0.10733	0.00046
634.24	0.0998	0.00041
634.28	0.10652	0.00033
634.31	0.10626	0.0002
634.36	0.10194	0.0004
634.4	0.10209	0.00039
634.43	0.10178	0.00057
634.48	0.10265	0.00048
634.52	0.10642	0.00047
634.56	0.10749	0.00034
634.6	0.10754	0.00023
634.64	0.10387	0.00025
634.68	0.10453	0.00031
634.72	0.09781	0.00025
634.76	0.09807	0.00027
634.8	0.10922	0.00046
634.84	0.10189	0.00061
634.88	0.10199	0.00038
634.92	0.10927	0.00042
634.95	0.10464	0.00046
635.0	0.10173	0.0004
635.04	0.10194	0.0004
635.07	0.11039	0.00046
635.12	0.10178	0.00041
635.16	0.11212	0.00033
635.19	0.10535	0.00025
635.24	0.10275	0.00051
635.28	0.10932	0.00038
635.31	0.10922	0.00046
635.36	0.10464	0.00039
635.4	0.10474	0.00031
635.43	0.10545	0.00052
635.48	0.10362	0.00039
635.52	0.10922	0.00046
635.56	0.10647	0.00047
635.6	0.11105	0.00041
635.64	0.11105	0.00041
635.68	0.1082	0.00039
635.72	0.09888	0.0004
635.76	0.10464	0.00023
635.8	0.10728	0.00055
635.84	0.11237	0.0002
635.88	0.10382	0.00041
635.92	0.10382	0.00047
635.95	0.10189	0.00041
636.0	0.1057	0.00036
636.04	0.10565	0.00039
636.07	0.10372	0.00038
636.12	0.1054	0.00041
636.16	0.10825	0.00036
636.19	0.10657	0.00044
636.24	0.10642	0.00052
636.28	0.1056	0.00053
636.31	0.09985	0.00047
636.36	0.10372	0.00068
636.4	0.09949	0.00042
636.43	0.10723	0.00042
636.48	0.10545	0.00052
636.52	0.10576	0.00044
636.56	0.10183	0.00061
636.6	0.10362	0.00056
636.64	0.10387	0.00041
636.68	0.10352	0.0005
636.72	0.10825	0.00042
636.76	0.10545	0.00052
636.8	0.10545	0.00047
636.84	0.10749	0.00061
636.88	0.10647	0.00034
636.92	0.10392	0.00041
636.95	0.10861	0.00031
637.0	0.10367	0.00036
637.04	0.10285	0.00034
637.07	0.10265	0.00036
637.12	0.1027	0.00038
637.16	0.09807	0.00042
637.19	0.10769	0.00023
637.24	0.10382	0.00052
637.28	0.1054	0.00052
637.31	0.11298	0.00041
637.36	0.10555	0.00055
637.4	0.10545	0.00034
637.43	0.10672	0.00048
637.48	0.10464	0.00056
637.52	0.10194	0.00051
637.56	0.10662	0.00048
637.6	0.10306	0.00036
637.64	0.10458	0.00027
637.68	0.10443	0.00034
637.72	0.10759	0.00038
637.76	0.10275	0.0006
637.8	0.10555	0.00055
637.84	0.10458	0.00048
637.88	0.10183	0.00047
637.92	0.10377	0.00051
637.95	0.10474	0.00038
638.0	0.10469	0.00036
638.04	0.11115	0.00044
638.07	0.10479	0.00033
638.12	0.10453	0.00038
638.16	0.1083	0.00038
638.19	0.11013	0.00044
638.24	0.10642	0.00034
638.28	0.10632	0.00033
638.31	0.11507	0.00052
638.36	0.1084	0.00034
638.4	0.11482	0.00051
638.43	0.1168	0.00042
638.48	0.11487	0.00053
638.52	0.11492	0.00031
638.56	0.12271	0.00034
638.6	0.12251	0.00036
638.64	0.12663	0.00031
638.68	0.13401	0.0004
638.72	0.13681	0.00031
638.76	0.14308	0.00041
638.8	0.14389	0.00058
638.84	0.14857	0.00046
638.88	0.14903	0.0005
638.92	0.15641	0.0004
638.95	0.16339	0.00047
639.0	0.1698	0.00023
639.04	0.16772	0.00048
639.07	0.167	0.00034
639.12	0.18126	0.00047
639.16	0.18116	0.0004
639.19	0.18284	0.00041
639.24	0.18004	0.00036
639.28	0.18874	0.00031
639.31	0.18839	0.00047
639.36	0.19144	0.00047
639.4	0.18284	0.00052
639.43	0.18666	0.00042
639.48	0.18661	0.00032
639.52	0.18141	0.00031
639.56	0.18854	0.00044
639.6	0.18284	0.00047
639.64	0.17805	0.00044
639.68	0.17826	0.00041
639.72	0.17989	0.0005
639.76	0.18009	0.00064
639.8	0.17352	0.00033
639.84	0.16904	0.00034
639.88	0.17591	0.00032
639.92	0.1638	0.00031
639.95	0.1639	0.00041
640.0	0.16324	0.00053
640.04	0.15657	0.00039
640.07	0.15662	0.00053
640.12	0.16196	0.00047
640.16	0.15845	0.00046
640.19	0.15193	0.00036
640.24	0.15086	0.0002
640.28	0.15173	0.00052
640.31	0.14598	0.00055
640.36	0.14603	0.00033
640.4	0.1529	0.0005
640.43	0.15092	0.00015
640.48	0.14705	0.00033
640.52	0.14521	0.0004
640.56	0.15173	0.00041
640.6	0.14333	0.00032
640.64	0.14353	0.00025
640.68	0.15361	0.00044
640.72	0.14822	0.00034
640.76	0.14985	0.00031
640.8	0.14801	0.00038
640.84	0.15341	0.00038
640.88	0.14618	0.00041
640.92	0.1528	0.00034
640.95	0.1528	0.00041
641.0	0.15178	0.00041
641.04	0.15621	0.0004
641.07	0.16125	0.0005
641.12	0.15764	0.00048
641.16	0.1582	0.00044
641.19	0.17179	0.00042
641.24	0.17138	0.00042
641.28	0.1693	0.00032
641.31	0.1725	0.0004
641.36	0.17754	0.00038
641.4	0.18197	0.00042
641.43	0.19603	0.00034
641.48	0.20173	0.0004
641.52	0.20147	0.00038
641.56	0.20753	0.00058
641.6	0.21196	0.0005
641.64	0.22606	0.00025
641.68	0.22825	0.0002
641.72	0.25264	0.00056
641.76	0.24704	0.0004
641.8	0.24791	0.00041
641.84	0.24791	0.00047
641.88	0.25733	0.00036
641.92	0.25733	0.00015
641.95	0.25076	0.00023
642.0	0.26578	0.00061
642.04	0.27067	0.00058
642.07	0.26832	0.00052
642.12	0.26863	0.00048
642.16	0.26109	0.0004
642.19	0.26588	0.00051
642.24	0.26573	0.00025
642.28	0.25819	0.00025
642.31	0.25636	0.00056
642.36	0.24704	0.00023
642.4	0.24689	0.00025
642.43	0.24694	0.00041
642.48	0.24419	0.00042
642.52	0.23757	0.00042
642.56	0.23462	0.00023
642.6	0.21395	0.0006
642.64	0.21787	0.00025
642.68	0.20361	0.00052
642.72	0.20356	0.0004
642.76	0.19328	0.00048
642.8	0.1892	0.00048
642.84	0.17897	0.00056
642.88	0.17036	0.00036
642.92	0.16965	0.00033
642.95	0.16522	0.00032
643.0	0.16497	0.00034
643.04	0.16115	0.00046
643.07	0.1554	0.0006
643.12	0.15647	0.00038
643.16	0.14521	0.0004
643.19	0.15372	0.00047
643.24	0.15937	0.00065
643.28	0.1529	0.0002
643.31	0.15255	0.00036
643.36	0.14048	0.00041
643.4	0.14435	0.00039
643.43	0.14491	0.00036
643.48	0.14226	0.00058
643.52	0.14425	0.00044
643.56	0.15377	0.00041
643.6	0.15377	0.00057
643.64	0.14878	0.00033
643.68	0.14725	0.0004
643.72	0.14817	0.00034
643.76	0.14812	0.00061
643.8	0.14139	0.00055
643.84	0.13921	0.00062
643.88	0.13936	0.0002
643.92	0.13681	0.00031
643.95	0.14425	0.00038
644.0	0.13284	0.00041
644.04	0.14588	0.00039
644.07	0.14888	0.00036
644.12	0.13875	0.00032
644.16	0.14511	0.00041
644.19	0.14526	0.00055
644.24	0.14353	0.00052
644.28	0.13406	0.0005
644.31	0.13966	0.00064
644.36	0.14501	0.00033
644.4	0.14338	0.00042
644.43	0.1444	0.00036
644.48	0.14409	0.00034
644.52	0.14226	0.00058
644.56	0.14501	0.00023
644.6	0.14145	0.00065
644.64	0.14638	0.00039
644.68	0.13355	0.0002
644.72	0.13865	0.00038
644.76	0.13854	0.00047
644.8	0.13885	0.0005
644.84	0.1472	0.00034
644.88	0.13411	0.00036
644.92	0.14338	0.00036
644.95	0.14715	0.00047
645.0	0.14129	0.00046
645.04	0.13941	0.00023
645.07	0.13946	0.00034
645.12	0.13747	0.00041
645.16	0.13691	0.00025
645.19	0.14623	0.00051
645.24	0.13595	0.00025
645.28	0.13401	0.00046
645.31	0.15102	0.00036
645.36	0.15102	0.00036
645.4	0.14633	0.00048
645.43	0.14308	0.00052
645.48	0.14526	0.00031
645.52	0.14684	0.00027
645.56	0.14053	0.00034
645.6	0.14496	0.00038
645.64	0.13763	0.00031
645.68	0.13747	0.00025
645.72	0.1471	0.00061
645.76	0.13691	0.00034
645.8	0.14786	0.00048
645.84	0.14618	0.00052
645.88	0.14129	0.00039
645.92	0.1498	0.00023
645.95	0.14995	0.00046
646.0	0.13921	0.00042
646.04	0.13915	0.00038
646.07	0.14246	0.00033
646.12	0.1442	0.0004
646.16	0.14323	0.00031
646.19	0.14623	0.0004
646.24	0.13956	0.00041
646.28	0.13956	0.00034
646.31	0.14526	0.00031
646.36	0.1471	0.00025
646.4	0.14333	0.00032
646.43	0.1499	0.00027
646.48	0.14608	0.00041
646.52	0.13681	0.00038
646.56	0.13651	0.00025
646.6	0.14328	0.00048
646.64	0.14201	0.00034
646.68	0.14139	0.00038
646.72	0.14129	0.00039
646.76	0.13753	0.00034
646.8	0.14817	0.00025
646.84	0.14817	0.00041
646.88	0.14552	0.00056
646.92	0.13758	0.00033
646.95	0.14435	0.00039
647.0	0.14226	0.00048
647.04	0.14598	0.00059
647.07	0.13844	0.00034
647.12	0.14109	0.00034
647.16	0.14114	0.00033
647.19	0.14236	0.00048
647.24	0.14684	0.00027
647.28	0.14323	0.00031
647.31	0.14246	0.00033
647.36	0.14323	0.00038
647.4	0.14414	0.00034
647.43	0.1443	0.00036
647.48	0.14425	0.00059
647.52	0.14435	0.00046
647.56	0.147	0.00031
647.6	0.14506	0.00057
647.64	0.13681	0.00031
647.68	0.14033	0.00036
647.72	0.14048	0.00041
647.76	0.14043	0.00046
647.8	0.13844	0.00047
647.84	0.14521	0.00046
647.88	0.14308	0.00041
647.92	0.14613	0.00047
647.95	0.14526	0.00038
648.0	0.14211	0.00034
648.04	0.14226	0.00053
648.07	0.1498	0.00056
648.12	0.14165	0.00023
648.16	0.13941	0.00056
648.19	0.14145	0.0006
648.24	0.15	0.00042
648.28	0.14425	0.00038
648.31	0.14435	0.00039
648.36	0.14445	0.00044
648.4	0.14898	0.00058
648.43	0.14425	0.00055
648.48	0.15168	0.00034
648.52	0.14496	0.00044
648.56	0.13926	0.00032
648.6	0.15351	0.0006
648.64	0.15351	0.00051
648.68	0.147	0.0002
648.72	0.13849	0.00025
648.76	0.14725	0.00065
648.8	0.14241	0.00038
648.84	0.13763	0.00031
648.88	0.14781	0.00055
648.92	0.14801	0.00055
648.95	0.15097	0.00046
649.0	0.14873	0.00061
649.04	0.15092	0.00036
649.07	0.1443	0.00048
649.12	0.15112	0.00023
649.16	0.14231	0.00039
649.19	0.14226	0.00036
649.24	0.13951	0.00034
649.28	0.13763	0.0002
649.31	0.14445	0.00031
649.36	0.13951	0.00069
649.4	0.14893	0.00032
649.43	0.14328	0.00036
649.48	0.14801	0.0005
649.52	0.14761	0.00061
649.56	0.14618	0.00047
649.6	0.14608	0.00061
649.64	0.14898	0.00048
649.68	0.14985	0.00038
649.72	0.14817	0.00047
649.76	0.15066	0.00047
649.8	0.15081	0.00023
649.84	0.14241	0.00044
649.88	0.13926	0.00039
649.92	0.14995	0.00039
649.95	0.1387	0.00036
650.0	0.14501	0.00046
650.04	0.14679	0.00031
650.07	0.14694	0.00036
650.12	0.14995	0.00051
650.16	0.14119	0.00044
650.19	0.14343	0.00031
650.24	0.147	0.00038
650.28	0.14827	0.0004
650.31	0.147	0.0002
650.36	0.15076	0.00057
650.4	0.15102	0.00048
650.43	0.1471	0.00034
650.48	0.14832	0.00044
650.52	0.14145	0.00033
650.56	0.14124	0.00048
650.6	0.15453	0.00056
650.64	0.14735	0.00027
650.68	0.14694	0.00036
650.72	0.14231	0.00046
650.76	0.14822	0.00052
650.8	0.15	0.00053
650.84	0.14735	0.00027
650.88	0.15092	0.00042
650.92	0.15183	0.0004
650.95	0.147	0.00038
651.0	0.14715	0.00025
651.04	0.1472	0.00041
651.07	0.15071	0.00047
651.12	0.14501	0.00033
651.16	0.14608	0.00041
651.19	0.14313	0.00047
651.24	0.14786	0.00058
651.28	0.14786	0.00036
651.31	0.14313	0.00025
651.36	0.15458	0.00053
651.4	0.14908	0.0004
651.43	0.15372	0.00041
651.48	0.14053	0.00041
651.52	0.1443	0.00048
651.56	0.14409	0.00047
651.6	0.14705	0.00033
651.64	0.13834	0.00038
651.68	0.14822	0.00061
651.72	0.14705	0.00033
651.76	0.14211	0.00047
651.8	0.14974	0.00052
651.84	0.1471	0.00025
651.88	0.1471	0.00034
651.92	0.14613	0.00041
651.95	0.13956	0.00047
652.0	0.14689	0.00039
652.04	0.14898	0.00036
652.07	0.14058	0.00034
652.12	0.14246	0.00051
652.16	0.14236	0.00062
652.19	0.14618	0.00047
652.24	0.14104	0.00041
652.28	0.14333	0.00039
652.31	0.1471	0.00034
652.36	0.14343	0.00031
652.4	0.14593	0.00036
652.43	0.14262	0.00025
652.48	0.14226	0.00053
652.52	0.14603	0.00046
652.56	0.14516	0.00041
652.6	0.14913	0.00034
652.64	0.14221	0.00038
652.68	0.14506	0.00034
652.72	0.13747	0.00047
652.76	0.13742	0.00041
652.8	0.14211	0.00034
652.84	0.14435	0.00051
652.88	0.14644	0.00027
652.92	0.14043	0.00033
652.95	0.14608	0.00025
653.0	0.13931	0.00036
653.04	0.13956	0.00052
653.07	0.14995	0.00039
653.12	0.14898	0.00027
653.16	0.14603	0.00056
653.19	0.14119	0.00031
653.24	0.14883	0.00059
653.28	0.14796	0.00027
653.31	0.14613	0.00041
653.36	0.14608	0.00041
653.4	0.15265	0.00051
653.43	0.14129	0.00032
653.48	0.13513	0.00036
653.52	0.14124	0.00042
653.56	0.1443	0.00042
653.6	0.14231	0.00039
653.64	0.14262	0.00034
653.68	0.14694	0.00036
653.72	0.14801	0.00055
653.76	0.14715	0.00041
653.8	0.15275	0.00047
653.84	0.14705	0.0004
653.88	0.1442	0.00051
653.92	0.14435	0.00032
653.95	0.14521	0.0004
654.0	0.1443	0.00042
654.04	0.14868	0.00041
654.07	0.14236	0.00042
654.12	0.14236	0.00036
654.16	0.15662	0.00042
654.19	0.14608	0.00034
654.24	0.14608	0.00047
654.28	0.15076	0.00061
654.31	0.14588	0.00032
654.36	0.15545	0.00068
654.4	0.15158	0.00038
654.43	0.14985	0.00031
654.48	0.15367	0.00056
654.52	0.15397	0.00048
654.56	0.15473	0.00057
654.6	0.15463	0.00038
654.64	0.15255	0.00042
654.68	0.15066	0.00069
654.72	0.1612	0.00036
654.76	0.15835	0.00052
654.8	0.16497	0.00052
654.84	0.16502	0.00041
654.88	0.16018	0.00048
654.92	0.16008	0.00042
654.95	0.16303	0.00023
655.0	0.17082	0.00032
655.04	0.15759	0.00032
655.07	0.17535	0.00042
655.12	0.17525	0.00046
655.16	0.17322	0.00056
655.19	0.17413	0.00041
655.24	0.17143	0.00031
655.28	0.17999	0.00039
655.31	0.17637	0.00048
655.36	0.18202	0.00032
655.4	0.18192	0.00031
655.43	0.1809	0.00038
655.48	0.18208	0.00036
655.52	0.18126	0.00034
655.56	0.18396	0.00038
655.6	0.18202	0.00046
655.64	0.18564	0.00042
655.68	0.17332	0.00036
655.72	0.17317	0.00047
655.76	0.18574	0.0004
655.8	0.18187	0.00046
655.84	0.17846	0.0006
655.88	0.17327	0.00031
655.92	0.17994	0.00053
655.95	0.16538	0.0004
656.0	0.16507	0.00023
656.04	0.17235	0.00046
656.07	0.17164	0.00041
656.12	0.16426	0.00042
656.16	0.1642	0.00056
656.19	0.1501	0.00033
656.24	0.15275	0.00041
656.28	0.15239	0.00038
656.31	0.15173	0.00041
656.36	0.15743	0.00033
656.4	0.15265	0.0006
656.43	0.14964	0.00034
656.48	0.1502	0.00034
656.52	0.14628	0.00038
656.56	0.14903	0.00031
656.6	0.14883	0.00068
656.64	0.1362	0.0006
656.68	0.1443	0.00053
656.72	0.1444	0.00048
656.76	0.14058	0.00047
656.8	0.1472	0.00025
656.84	0.13946	0.00041
656.88	0.13936	0.00064
656.92	0.1444	0.00036
656.95	0.14618	0.00047
657.0	0.13865	0.00031
657.04	0.14516	0.00041
657.07	0.15168	0.00052
657.12	0.1499	0.00048
657.16	0.14313	0.00047
657.19	0.14318	0.00023
657.24	0.14822	0.00041
657.28	0.14806	0.0004
657.31	0.14226	0.00053
657.36	0.15382	0.00025
657.4	0.14404	0.00034
657.43	0.147	0.00038
657.48	0.14694	0.00027
657.52	0.14613	0.00041
657.56	0.14801	0.00038
657.6	0.13742	0.00047
657.64	0.14913	0.00025
657.68	0.15295	0.00015
657.72	0.13875	0.00032
657.76	0.13844	0.00025
657.8	0.14343	0.0005
657.84	0.1498	0.00023
657.88	0.14511	0.00034
657.92	0.14806	0.00056
657.95	0.14593	0.00036
658.0	0.14806	0.0006
658.04	0.14068	0.00031
658.07	0.14063	0.00023
658.12	0.14313	0.00025
658.16	0.14801	0.00044
658.19	0.14038	0.00031
658.24	0.14048	0.00041
658.28	0.1499	0.00048
658.31	0.147	0.00031
658.36	0.1473	0.00038
658.4	0.14425	0.00038
658.43	0.1471	0.00034
658.48	0.15377	0.00041
658.52	0.15285	0.00023
658.56	0.14817	0.00065
658.6	0.15372	0.00052
658.64	0.14715	0.00025
658.68	0.14715	0.00041
658.72	0.15005	0.00044
658.76	0.14623	0.00056
658.8	0.1498	0.00023
658.84	0.1472	0.00034
658.88	0.14725	0.0004
658.92	0.15183	0.00033
658.95	0.15199	0.00032
659.0	0.14588	0.00046
659.04	0.15662	0.00027
659.07	0.15463	0.0005
659.12	0.15178	0.00034
659.16	0.15932	0.00034
659.19	0.15193	0.00042
659.24	0.15173	0.00025
659.28	0.16028	0.00046
659.31	0.16033	0.00052
659.36	0.15438	0.00051
659.4	0.17138	0.00015
659.43	0.16685	0.0005
659.48	0.16604	0.00034
659.52	0.17999	0.00046
659.56	0.18029	0.00047
659.6	0.17821	0.00034
659.64	0.18309	0.00036
659.68	0.18019	0.00041
659.72	0.1865	0.00055
659.76	0.19419	0.00036
659.8	0.19898	0.00046
659.84	0.19918	0.00033
659.88	0.19343	0.00061
659.92	0.19725	0.00036
659.95	0.21018	0.00023
660.0	0.20641	0.00036
660.04	0.2084	0.00044
660.07	0.20275	0.00033
660.12	0.20254	0.0006
660.16	0.21303	0.00042
660.19	0.21858	0.00044
660.24	0.22825	0.0002
660.28	0.21588	0.00034
660.31	0.22897	0.00038
660.36	0.22245	0.00041
660.4	0.22713	0.00047
660.43	0.22718	0.0004
660.48	0.22255	0.00034
660.52	0.22245	0.00034
660.56	0.21583	0.00061
660.6	0.2197	0.00039
660.64	0.22617	0.00033
660.68	0.22046	0.00041
660.72	0.22046	0.00041
660.76	0.20193	0.00042
660.8	0.21491	0.00034
660.84	0.20911	0.00044
660.88	0.20494	0.00023
660.92	0.19725	0.00048
660.95	0.20188	0.00032
661.0	0.19623	0.00036
661.04	0.19628	0.00039
661.07	0.19547	0.00041
661.12	0.19251	0.00057
661.16	0.18656	0.00053
661.19	0.18024	0.00041
661.24	0.17917	0.00041
661.28	0.1749	0.00051
661.31	0.17525	0.0006
661.36	0.1667	0.00058
661.4	0.17714	0.00034
661.43	0.17551	0.00031
661.48	0.16568	0.00036
661.52	0.15835	0.00052
661.56	0.15932	0.00034
661.6	0.15942	0.00057
661.64	0.15086	0.00031
661.68	0.15657	0.00051
661.72	0.15285	0.0004
661.76	0.14633	0.00048
661.8	0.15372	0.00034
661.84	0.14822	0.00061
661.88	0.15372	0.00041
661.92	0.15377	0.00047
661.95	0.15937	0.00034
662.0	0.13849	0.00052
662.04	0.14694	0.00027
662.07	0.14694	0.00027
662.12	0.15178	0.00041
662.16	0.14974	0.00034
662.19	0.14959	0.00051
662.24	0.14033	0.00053
662.28	0.1473	0.00038
662.31	0.14888	0.00036
662.36	0.14593	0.00042
662.4	0.14318	0.00033
662.43	0.14129	0.00039
662.48	0.14129	0.00056
662.52	0.1499	0.00036
662.56	0.14414	0.00041
662.6	0.14791	0.00064
662.64	0.13488	0.00025
662.68	0.13498	0.00034
662.72	0.13121	0.00044
662.76	0.14043	0.0004
662.8	0.14048	0.00025
662.84	0.14414	0.00041
662.88	0.13299	0.0004
662.92	0.13763	0.00038
662.95	0.14715	0.00041
663.0	0.14318	0.00033
663.04	0.13366	0.00051
663.07	0.13376	0.00044
663.12	0.14394	0.0005
663.16	0.13941	0.00046
663.19	0.13936	0.00038
663.24	0.14338	0.00027
663.28	0.1445	0.00033
663.31	0.13483	0.00023
663.36	0.14328	0.00036
663.4	0.14302	0.00047
663.43	0.1331	0.00027
663.48	0.13666	0.00036
663.52	0.14027	0.00023
663.56	0.13931	0.00036
663.6	0.14119	0.0002
663.64	0.13773	0.00039
663.68	0.13742	0.00041
663.72	0.13503	0.00033
663.76	0.14969	0.00025
663.8	0.13681	0.0002
663.84	0.14134	0.0007
663.88	0.13493	0.00025
663.92	0.13646	0.00034
663.95	0.13676	0.00027
664.0	0.1361	0.0005
664.04	0.13926	0.00039
664.07	0.13661	0.00038
664.12	0.14119	0.0005
664.16	0.13737	0.0004
664.19	0.14038	0.00031
664.24	0.13371	0.00042
664.28	0.13381	0.0004
664.31	0.14236	0.00036
664.36	0.1304	0.00057
664.4	0.13478	0.00055
664.43	0.13758	0.00023
664.48	0.13391	0.00047
664.52	0.13019	0.00038
664.56	0.13035	0.00041
664.6	0.13483	0.00046
664.64	0.12999	0.00044
664.68	0.1443	0.00027
664.72	0.13427	0.00044
664.76	0.13019	0.00059
664.8	0.13305	0.00044
664.84	0.13915	0.00031
664.88	0.13966	0.00055
664.92	0.13676	0.00027
664.95	0.13865	0.00031
665.0	0.13732	0.00038
665.04	0.13676	0.00036
665.07	0.13585	0.0004
665.12	0.13401	0.0004
665.16	0.13396	0.00052
665.19	0.13773	0.00051
665.24	0.13493	0.00034
665.28	0.13849	0.00025
665.31	0.13758	0.00033
665.36	0.13401	0.00051
665.4	0.13951	0.00052
665.43	0.13941	0.00046
665.48	0.13666	0.00015
665.52	0.13656	0.0004
665.56	0.13315	0.00046
665.6	0.12923	0.00033
665.64	0.13595	0.00041
665.68	0.14129	0.00023
665.72	0.13951	0.00041
665.76	0.13966	0.00059
665.8	0.13325	0.00055
665.84	0.13569	0.00032
665.88	0.13503	0.00046
665.92	0.12989	0.00041
665.95	0.13941	0.00051
666.0	0.13457	0.00038
666.04	0.13462	0.00066
666.07	0.13381	0.00046
666.12	0.13289	0.00052
666.16	0.14139	0.00031
666.19	0.13844	0.00041
666.24	0.13498	0.00041
666.28	0.1359	0.00047
666.31	0.13595	0.00041
666.36	0.13671	0.00046
666.4	0.13198	0.00065
666.43	0.14145	0.0004
666.48	0.13681	0.00038
666.52	0.13101	0.00044
666.56	0.13742	0.00034
666.6	0.13503	0.00023
666.64	0.13503	0.00023
666.68	0.13829	0.00053
666.72	0.13289	0.00041
666.76	0.13849	0.00041
666.8	0.13294	0.00041
666.84	0.13595	0.00057
666.88	0.13946	0.00052
666.92	0.13951	0.00025
666.95	0.13676	0.00027
667.0	0.13656	0.00033
667.04	0.13661	0.00038
667.07	0.13854	0.00034
667.12	0.13452	0.00046
667.16	0.14262	0.00041
667.19	0.13473	0.00036
667.24	0.13462	0.00058
667.28	0.13671	0.00023
667.31	0.14129	0.00039
667.36	0.1443	0.00058
667.4	0.13411	0.00053
667.43	0.13671	0.00032
667.48	0.13396	0.00061
667.52	0.13376	0.0002
667.56	0.13024	0.0004
667.6	0.14231	0.00064
667.64	0.13376	0.00044
667.68	0.13676	0.00036
667.72	0.13503	0.00023
667.76	0.13758	0.0004
667.8	0.13758	0.00033
667.84	0.13116	0.00036
667.88	0.14246	0.00068
667.92	0.13366	0.00032
667.95	0.13961	0.00056
668.0	0.14048	0.00025
668.04	0.13371	0.00015
668.07	0.14048	0.00034
668.12	0.14033	0.00053
668.16	0.14043	0.00056
668.19	0.1444	0.00042
668.24	0.13865	0.0002
668.28	0.13305	0.00031
668.31	0.13294	0.00052
668.36	0.13691	0.00041
668.4	0.13702	0.00041
668.43	0.14119	0.00038
668.48	0.14058	0.00034
668.52	0.13381	0.00051
668.56	0.14139	0.00031
668.6	0.12928	0.00041
668.64	0.1387	0.00048
668.68	0.13829	0.00042
668.72	0.13844	0.00047
668.76	0.13014	0.00042
668.8	0.13585	0.00046
668.84	0.14053	0.00034
668.88	0.13386	0.00052
668.92	0.14145	0.0004
668.95	0.13498	0.00052
669.0	0.13508	0.00044
669.04	0.13101	0.00038
669.07	0.13676	0.00042
669.12	0.14134	0.00027
669.16	0.13585	0.00051
669.19	0.13483	0.0004
669.24	0.1387	0.00053
669.28	0.13875	0.00039
669.31	0.13279	0.00046
669.36	0.1359	0.00052
669.4	0.13742	0.00041
669.43	0.13865	0.00031
669.48	0.13753	0.00041
669.52	0.13106	0.00042
669.56	0.13773	0.00023
669.6	0.13753	0.00041
669.64	0.13732	0.00044
669.68	0.13299	0.00046
669.72	0.13859	0.0004
669.76	0.13182	0.00047
669.8	0.13666	0.00036
669.84	0.15081	0.00023
669.88	0.15086	0.0005
669.92	0.13401	0.0006
669.95	0.13198	0.0004
670.0	0.13681	0.0005
670.04	0.13681	0.00038
670.07	0.13493	0.00025
670.12	0.14053	0.00041
670.16	0.14033	0.00053
670.19	0.13763	0.0002
670.24	0.14048	0.00041
670.28	0.13198	0.00068
670.31	0.13595	0.00057
670.36	0.13136	0.00041
670.4	0.13401	0.00065
670.43	0.12953	0.00048
670.48	0.12912	0.00027
670.52	0.14985	0.00031
670.56	0.13961	0.00056
670.6	0.13478	0.00031
670.64	0.14333	0.00032
670.68	0.13951	0.00061
670.72	0.13569	0.00032
670.76	0.13579	0.00038
670.8	0.13208	0.00027
670.84	0.13386	0.00025
670.88	0.13111	0.00046
670.92	0.13361	0.00036
670.95	0.14114	0.00033
671.0	0.13676	0.00042
671.04	0.13131	0.00034
671.07	0.13106	0.00053
671.12	0.13289	0.00047
671.16	0.14165	0.0004
671.19	0.12816	0.00055
671.24	0.13411	0.00042
671.28	0.13203	0.00055
671.31	0.13747	0.00047
671.36	0.13763	0.00038
671.4	0.1387	0.00053
671.43	0.13523	0.00036
671.48	0.13854	0.00061
671.52	0.13966	0.00031
671.56	0.14134	0.00036
671.6	0.13406	0.00059
671.64	0.13386	0.00057
671.68	0.14221	0.00031
671.72	0.13371	0.0007
671.76	0.13401	0.00051
671.8	0.13574	0.00036
671.84	0.13376	0.0005
671.88	0.13493	0.00034
671.92	0.13208	0.00048
671.95	0.13218	0.00027
672.0	0.13585	0.00046
672.04	0.13483	0.00051
672.07	0.13406	0.00038
672.12	0.13218	0.00015
672.16	0.1335	0.00046
672.19	0.12831	0.00041
672.24	0.128	0.00048
672.28	0.14094	0.00046
672.31	0.13198	0.00033
672.36	0.13411	0.00053
672.4	0.13498	0.00025
672.43	0.13488	0.00025
672.48	0.13086	0.00052
672.52	0.13101	0.00031
672.56	0.13299	0.0004
672.6	0.13218	0.00053
672.64	0.14043	0.00046
672.68	0.13676	0.00027
672.72	0.13294	0.00034
672.76	0.13646	0.00041
672.8	0.13946	0.00047
672.84	0.13926	0.00032
672.88	0.13839	0.0004
672.92	0.13564	0.00048
672.95	0.12419	0.00047
673.0	0.13198	0.0004
673.04	0.14134	0.00027
673.07	0.13498	0.00034
673.12	0.13498	0.00025
673.16	0.13488	0.00047
673.19	0.14022	0.00036
673.24	0.13666	0.00036
673.28	0.13661	0.00031
673.31	0.13279	0.0006
673.36	0.13656	0.00046
673.4	0.13381	0.00046
673.43	0.13396	0.00041
673.48	0.13177	0.00051
673.52	0.13758	0.00046
673.56	0.13753	0.00047
673.6	0.13004	0.00036
673.64	0.13009	0.00051
673.68	0.13478	0.0002
673.72	0.13478	0.00038
673.76	0.13941	0.00033
673.8	0.13931	0.00048
673.84	0.13768	0.00048
673.88	0.14063	0.0004
673.92	0.13208	0.00048
673.95	0.14145	0.0004
674.0	0.14139	0.00038
674.04	0.13101	0.00055
674.07	0.13753	0.00041
674.12	0.13299	0.0004
674.16	0.1331	0.00053
674.19	0.12912	0.00036
674.24	0.13554	0.00033
674.28	0.14089	0.00031
674.31	0.14104	0.00025
674.36	0.13294	0.00034
674.4	0.13656	0.00033
674.43	0.13355	0.00038
674.48	0.13391	0.00057
674.52	0.12918	0.0005
674.56	0.12836	0.00047
674.6	0.128	0.00042
674.64	0.13865	0.00059
674.68	0.12744	0.00055
674.72	0.13305	0.00038
674.76	0.13101	0.00038
674.8	0.13305	0.00038
674.84	0.12653	0.00039
674.88	0.13096	0.0004
674.92	0.13116	0.00048
674.95	0.13417	0.00046
675.0	0.13691	0.00034
675.04	0.13019	0.00064
675.07	0.13101	0.0005
675.12	0.13004	0.00042
675.16	0.13203	0.00031
675.19	0.13208	0.00042
675.24	0.13768	0.00036
675.28	0.13854	0.00025
675.31	0.12907	0.00032
675.36	0.12938	0.00034
675.4	0.13009	0.00023
675.43	0.12434	0.00033
675.48	0.12444	0.00015
675.52	0.13004	0.00048
675.56	0.12821	0.00046
675.6	0.12831	0.00034
675.64	0.13218	0.00036
675.68	0.13391	0.00047
675.72	0.12526	0.00041
675.76	0.12739	0.00051
675.8	0.12724	0.00061
675.84	0.13371	0.00053
675.88	0.12062	0.00034
675.92	0.13467	0.00032
675.95	0.13075	0.00023
676.0	0.13982	0.00058
676.04	0.13101	0.00031
676.07	0.13111	0.00039
676.12	0.12617	0.00065
676.16	0.13926	0.00039
676.19	0.12831	0.00041
676.24	0.12933	0.00041
676.28	0.12999	0.00044
676.31	0.13473	0.00036
676.36	0.13478	0.00038
676.4	0.13279	0.0004
676.43	0.13381	0.0004
676.48	0.12831	0.00025
676.52	0.12923	0.00033
676.56	0.13009	0.00046
676.6	0.12622	0.00057
676.64	0.12963	0.00036
676.68	0.12907	0.00046
676.72	0.13579	0.00044
676.76	0.13096	0.00051
676.8	0.1222	0.00034
676.84	0.13187	0.00047
676.88	0.13564	0.00036
676.92	0.12999	0.00038
676.95	0.13009	0.00039
677.0	0.12816	0.00031
677.04	0.13101	0.0005
677.07	0.13091	0.00041
677.12	0.13574	0.00042
677.16	0.13086	0.00041
677.19	0.13208	0.00058
677.24	0.13376	0.00044
677.28	0.13417	0.00056
677.31	0.12617	0.00046
677.36	0.12999	0.00044
677.4	0.13096	0.00033
677.43	0.12638	0.0004
677.48	0.13009	0.00051
677.52	0.12923	0.00046
677.56	0.12933	0.00052
677.6	0.12907	0.00032
677.64	0.12444	0.00042
677.68	0.13096	0.0004
677.72	0.13035	0.00034
677.76	0.13595	0.00041
677.8	0.12907	0.00039
677.84	0.12918	0.00044
677.88	0.13366	0.00039
677.92	0.13564	0.00048
677.95	0.13834	0.00055
678.0	0.13585	0.00033
678.04	0.12632	0.00052
678.07	0.12994	0.00046
678.12	0.1359	0.00047
678.16	0.136	0.00041
678.19	0.12806	0.00032
678.24	0.12444	0.00053
678.28	0.13681	0.0002
678.31	0.13676	0.00027
678.36	0.13671	0.00039
678.4	0.13742	0.00041
678.43	0.13747	0.00047
678.48	0.13411	0.00058
678.52	0.13106	0.00042
678.56	0.12632	0.00047
678.6	0.12836	0.00041
678.64	0.12454	0.00027
678.68	0.12541	0.00031
678.72	0.12531	0.00034
678.76	0.12459	0.00044
678.8	0.13121	0.00044
678.84	0.13299	0.0004
678.88	0.1331	0.00036
678.92	0.13192	0.00047
678.95	0.12912	0.00036
679.0	0.1359	0.00034
679.04	0.1359	0.00052
679.07	0.13483	0.00051
679.12	0.13483	0.0004
679.16	0.12831	0.00041
679.19	0.13187	0.00061
679.24	0.12918	0.00038
679.28	0.12638	0.00046
679.31	0.12658	0.00036
679.36	0.13564	0.00048
679.4	0.12892	0.00033
679.43	0.12245	0.00039
679.48	0.13386	0.00052
679.52	0.128	0.00048
679.56	0.13554	0.0004
679.6	0.12816	0.00038
679.64	0.12836	0.00025
679.68	0.13513	0.00042
679.72	0.12632	0.00047
679.76	0.1252	0.00061
679.8	0.13294	0.00041
679.84	0.12836	0.00025
679.88	0.12826	0.00034
679.92	0.12841	0.00056
679.95	0.13024	0.0004
680.0	0.12912	0.00042
680.04	0.12902	0.00036
680.07	0.12928	0.00025
680.12	0.12744	0.00064
680.16	0.11889	0.00039
680.19	0.11889	0.00056
680.24	0.12923	0.00033
680.28	0.13508	0.00038
680.31	0.12933	0.00052
680.36	0.13865	0.00038
680.4	0.13213	0.00032
680.43	0.12495	0.00036
680.48	0.12638	0.00033
680.52	0.12607	0.00053
680.56	0.12907	0.00032
680.6	0.12994	0.00046
680.64	0.13386	0.00061
680.68	0.12856	0.00023
680.72	0.12918	0.00038
680.76	0.12627	0.00047
680.8	0.12612	0.00038
680.84	0.13666	0.00053
680.88	0.13473	0.00027
680.92	0.12617	0.0004
680.95	0.12347	0.00046
681.0	0.13305	0.00031
681.04	0.13086	0.00034
681.07	0.13742	0.00052
681.12	0.13737	0.0004
681.16	0.14063	0.00046
681.19	0.13004	0.00048
681.24	0.13187	0.00034
681.28	0.13299	0.0004
681.31	0.13126	0.00033
681.36	0.12989	0.00041
681.4	0.1303	0.00034
681.43	0.1332	0.00027
681.48	0.1275	0.00042
681.52	0.13457	0.00075
681.56	0.13106	0.00036
681.6	0.13493	0.00034
681.64	0.13198	0.00023
681.68	0.13228	0.0004
681.72	0.13737	0.00033
681.76	0.13483	0.00046
681.8	0.13844	0.00052
681.84	0.1331	0.00048
681.88	0.13758	0.0004
681.92	0.12999	0.0005
681.95	0.13473	0.00036
682.0	0.13483	0.00033
682.04	0.12831	0.00025
682.07	0.13579	0.00038
682.12	0.14425	0.0005
682.16	0.13396	0.00057
682.19	0.13111	0.00032
682.24	0.13854	0.00034
682.28	0.13839	0.00056
682.31	0.14068	0.00044
682.36	0.14119	0.00031
682.4	0.13569	0.00056
682.43	0.14038	0.0002
682.48	0.13763	0.00031
682.52	0.13951	0.00047
682.56	0.13946	0.00041
682.6	0.13182	0.00041
682.64	0.14231	0.00064
682.68	0.13666	0.00036
682.72	0.13391	0.00034
682.76	0.1359	0.00065
682.8	0.13473	0.00036
682.84	0.13294	0.00047
682.88	0.13305	0.0002
682.92	0.13763	0.00038
682.95	0.13406	0.0005
683.0	0.13101	0.00031
683.04	0.13086	0.00034
683.07	0.13753	0.00047
683.12	0.12912	0.00036
683.16	0.12912	0.00058
683.19	0.13035	0.00034
683.24	0.13208	0.00042
683.28	0.12638	0.00033
683.31	0.13396	0.00057
683.36	0.12918	0.00031
683.4	0.13299	0.0004
683.43	0.13305	0.0005
683.48	0.13279	0.00023
683.52	0.12811	0.00053
683.56	0.12699	0.00048
683.6	0.13024	0.0004
683.64	0.12841	0.00046
683.68	0.1252	0.00047
683.72	0.12648	0.00053
683.76	0.12627	0.00052
683.8	0.12139	0.00027
683.84	0.12551	0.00046
683.88	0.13213	0.00051
683.92	0.13299	0.00023
683.95	0.12536	0.0004
684.0	0.12831	0.00041
684.04	0.12795	0.00031
684.07	0.12851	0.00042
684.12	0.12139	0.00036
684.16	0.12744	0.00031
684.19	0.12627	0.00069
684.24	0.12877	0.00025
684.28	0.12729	0.00034
684.31	0.12312	0.00046
684.36	0.12363	0.00046
684.4	0.12999	0.0005
684.43	0.12704	0.00046
684.48	0.12724	0.00034
684.52	0.1251	0.00044
684.56	0.12912	0.00036
684.6	0.12536	0.0004
684.64	0.12531	0.00034
684.68	0.12643	0.00031
684.72	0.12541	0.0002
684.76	0.12643	0.00038
684.8	0.1224	0.00015
684.84	0.12327	0.00047
684.88	0.12444	0.00027
684.92	0.12434	0.00056
684.95	0.12001	0.00044
685.0	0.12047	0.00027
685.04	0.13198	0.00033
685.07	0.12719	0.00046
685.12	0.12918	0.0002
685.16	0.12271	0.00041
685.19	0.12831	0.00041
685.24	0.12811	0.00036
685.28	0.12546	0.00048
685.31	0.12622	0.00047
685.36	0.12912	0.00042
685.4	0.13019	0.0005
685.43	0.12439	0.00031
685.48	0.12546	0.00027
685.52	0.1252	0.00034
685.56	0.13024	0.0004
685.6	0.13218	0.00027
685.64	0.12347	0.00051
685.68	0.12378	0.00041
685.72	0.11991	0.00051
685.76	0.12358	0.0005
685.8	0.13035	0.00025
685.84	0.12994	0.00051
685.88	0.12388	0.00038
685.92	0.12149	0.00048
685.95	0.12622	0.00034
686.0	0.12184	0.00044
686.04	0.1303	0.00041
686.07	0.12042	0.00056
686.12	0.12077	0.00023
686.16	0.13121	0.00038
686.19	0.11981	0.0005
686.24	0.12169	0.00041
686.28	0.11869	0.00057
686.31	0.12872	0.00046
686.36	0.11965	0.00041
686.4	0.12016	0.00025
686.43	0.12821	0.0004
686.48	0.12536	0.00056
686.52	0.12347	0.00051
686.56	0.12826	0.00025
686.6	0.12627	0.00034
686.64	0.11691	0.00048
686.68	0.11976	0.00051
686.72	0.11986	0.00036
686.76	0.12826	0.00047
686.8	0.12072	0.00052
686.84	0.12444	0.00027
686.88	0.12744	0.00038
686.92	0.12653	0.00046
686.95	0.12342	0.00066
687.0	0.12373	0.00041
687.04	0.12245	0.00039
687.07	0.12057	0.00051
687.12	0.11853	0.0004
687.16	0.1252	0.00034
687.19	0.12251	0.00042
687.24	0.12154	0.00031
687.28	0.12999	0.0005
687.31	0.13004	0.00042
687.36	0.12434	0.0004
687.4	0.12363	0.0004
687.43	0.12077	0.0004
687.48	0.12526	0.00041
687.52	0.13131	0.00041
687.56	0.11976	0.00046
687.6	0.11945	0.00058
687.64	0.12434	0.0004
687.68	0.12128	0.0004
687.72	0.12653	0.00032
687.76	0.12607	0.00036
687.8	0.12856	0.00023
687.84	0.12561	0.00055
687.88	0.12546	0.00027
687.92	0.12083	0.00044
687.95	0.12062	0.00034
688.0	0.12261	0.00046
688.04	0.12933	0.00025
688.07	0.12067	0.00034
688.12	0.12923	0.00046
688.16	0.1251	0.00038
688.19	0.12531	0.00047
688.24	0.11859	0.00025
688.28	0.11787	0.00032
688.31	0.12821	0.00046
688.36	0.12638	0.0004
688.4	0.12251	0.00015
688.43	0.11894	0.00027
688.48	0.11864	0.00041
688.52	0.1247	0.00034
688.56	0.11874	0.00023
688.6	0.12342	0.00042
688.64	0.12444	0.00015
688.68	0.11965	0.00052
688.72	0.13361	0.00036
688.76	0.13361	0.00058
688.8	0.12368	0.00034
688.84	0.12159	0.00046
688.88	0.12439	0.00038
688.92	0.12459	0.0002
688.95	0.12928	0.00052
689.0	0.12449	0.00032
689.04	0.12383	0.0006
689.07	0.12337	0.00044
689.12	0.12184	0.00038
689.16	0.12531	0.00047
689.19	0.12164	0.00041
689.24	0.12042	0.00023
689.28	0.12424	0.00052
689.31	0.12444	0.00036
689.36	0.12408	0.00038
689.4	0.12831	0.00041
689.43	0.12811	0.00036
689.48	0.12826	0.00047
689.52	0.12515	0.0004
689.56	0.12449	0.00023
689.6	0.1359	0.00041
689.64	0.13111	0.00023
689.68	0.13086	0.00052
689.72	0.12251	0.00042
689.76	0.12434	0.0006
689.8	0.12907	0.00046
689.84	0.11869	0.00041
689.88	0.12505	0.00048
689.92	0.11477	0.00042
689.95	0.11523	0.00031
690.0	0.12459	0.0002
690.04	0.12378	0.00052
690.07	0.12709	0.00036
690.12	0.12454	0.00015
690.16	0.12841	0.0004
690.19	0.12439	0.00055
690.24	0.12424	0.00041
690.28	0.12439	0.00044
690.31	0.12424	0.00025
690.36	0.12531	0.00041
