Waveleght	Intensity	Error
560.43	0.10102	0.00027
560.48	0.09425	0.00034
560.52	0.09893	0.00044
560.56	0.09695	0.00042
560.6	0.09603	0.00066
560.64	0.10163	0.00053
560.68	0.10153	0.00042
560.72	0.10153	0.00042
560.76	0.0943	0.00033
560.8	0.09629	0.00041
560.84	0.10005	0.00046
560.88	0.1001	0.00036
560.92	0.10387	0.00041
560.95	0.0971	0.00031
561.0	0.097	0.00032
561.04	0.09817	0.00023
561.07	0.0998	0.00034
561.12	0.09613	0.00033
561.16	0.10474	0.00038
561.19	0.09893	0.0005
561.24	0.09537	0.00038
561.28	0.09522	0.00025
561.31	0.10092	0.00023
561.36	0.09822	0.00065
561.4	0.09735	0.00056
561.43	0.09797	0.00036
561.48	0.09888	0.00051
561.52	0.09608	0.00038
561.56	0.09613	0.00033
561.6	0.09338	0.00048
561.64	0.09878	0.00057
561.68	0.09613	0.00033
561.72	0.0941	0.0004
561.76	0.09303	0.00044
561.8	0.09506	0.00038
561.84	0.09603	0.00036
561.88	0.09629	0.00041
561.92	0.0943	0.00051
561.95	0.09623	0.00047
562.0	0.09517	0.00034
562.04	0.10178	0.00052
562.07	0.09827	0.00047
562.12	0.09613	0.00023
562.16	0.09598	0.00032
562.19	0.1056	0.00053
562.24	0.09791	0.00038
562.28	0.09878	0.00047
562.31	0.10168	0.00055
562.36	0.09695	0.00027
562.4	0.09532	0.00023
562.43	0.09501	0.00053
562.48	0.09725	0.00047
562.52	0.09695	0.00053
562.56	0.09511	0.00033
562.6	0.09338	0.00042
562.64	0.09537	0.00031
562.68	0.09893	0.0005
562.72	0.09705	0.00027
562.76	0.0969	0.00031
562.8	0.09903	0.00032
562.84	0.0972	0.00041
562.88	0.09618	0.00041
562.92	0.09812	0.0002
562.95	0.09542	0.00042
563.0	0.09165	0.00041
563.04	0.09155	0.0004
563.07	0.10357	0.00048
563.12	0.09791	0.00031
563.16	0.09868	0.00046
563.19	0.10082	0.00034
563.24	0.10087	0.00025
563.28	0.09791	0.00031
563.31	0.10097	0.00055
563.36	0.10092	0.00023
563.4	0.09618	0.00025
563.43	0.10464	0.00023
563.48	0.09705	0.00048
563.52	0.09903	0.00051
563.56	0.09903	0.0006
563.6	0.09898	0.00053
563.64	0.09914	0.00044
563.68	0.09802	0.00046
563.72	0.10082	0.00047
563.76	0.09903	0.00068
563.8	0.0999	0.00046
563.84	0.09506	0.00044
563.88	0.09623	0.00034
563.92	0.09613	0.0004
563.95	0.09481	0.00046
564.0	0.0943	0.00023
564.04	0.10077	0.00025
564.07	0.09618	0.00025
564.12	0.10204	0.00036
564.16	0.09608	0.00031
564.19	0.0942	0.00034
564.24	0.0942	0.00047
564.28	0.09807	0.00036
564.31	0.09323	0.00047
564.36	0.09135	0.00027
564.4	0.09797	0.00036
564.43	0.09216	0.00041
564.48	0.09786	0.00051
564.52	0.09812	0.00038
564.56	0.10194	0.00046
564.6	0.10265	0.00015
564.64	0.09613	0.0006
564.68	0.09995	0.00044
564.72	0.09613	0.00023
564.76	0.09858	0.00042
564.8	0.10285	0.00034
564.84	0.1025	0.00031
564.88	0.10077	0.00034
564.92	0.09914	0.0005
564.95	0.10194	0.00033
565.0	0.09435	0.00038
565.04	0.10453	0.00038
565.07	0.09995	0.00031
565.12	0.09995	0.00031
565.16	0.10071	0.00046
565.19	0.09486	0.00031
565.24	0.09629	0.00025
565.28	0.10168	0.00044
565.31	0.09812	0.00031
565.36	0.09985	0.00041
565.4	0.09985	0.00034
565.43	0.10107	0.00039
565.48	0.1001	0.00027
565.52	0.10092	0.00046
565.56	0.10458	0.00036
565.6	0.10173	0.00046
565.64	0.09807	0.00042
565.68	0.10178	0.00034
565.72	0.10163	0.00048
565.76	0.10453	0.00031
565.8	0.09893	0.00044
565.84	0.10021	0.00051
565.88	0.09537	0.00038
565.92	0.10443	0.00034
565.95	0.09817	0.0004
566.0	0.09827	0.00034
566.04	0.10367	0.00042
566.07	0.09797	0.00048
566.12	0.10265	0.00048
566.16	0.10153	0.00042
566.19	0.10652	0.00033
566.24	0.10005	0.00023
566.28	0.0998	0.00041
566.31	0.09735	0.00033
566.36	0.09995	0.00044
566.4	0.10092	0.00033
566.43	0.10066	0.00031
566.48	0.09145	0.00036
566.52	0.09613	0.0006
566.56	0.09786	0.00046
566.6	0.09812	0.0002
566.64	0.10087	0.00052
566.68	0.09425	0.00034
566.72	0.09517	0.00034
566.76	0.09898	0.00027
566.8	0.09807	0.00042
566.84	0.09578	0.00057
566.88	0.09613	0.00033
566.92	0.09888	0.00056
566.95	0.09893	0.00038
567.0	0.09608	0.0002
567.04	0.10285	0.00034
567.07	0.09914	0.00055
567.12	0.09919	0.00033
567.16	0.09725	0.00052
567.19	0.09695	0.00027
567.24	0.09797	0.00036
567.28	0.09898	0.00042
567.31	0.09888	0.0004
567.36	0.09807	0.00042
567.4	0.10061	0.00048
567.43	0.10362	0.00032
567.48	0.10367	0.00048
567.52	0.097	0.00046
567.56	0.1029	0.00034
567.6	0.09517	0.00025
567.64	0.09629	0.00025
567.68	0.09425	0.00041
567.72	0.09791	0.00031
567.76	0.09802	0.00032
567.8	0.10005	0.00032
567.84	0.09695	0.00042
567.88	0.09629	0.00052
567.92	0.09995	0.00031
567.95	0.09781	0.00034
568.0	0.09043	0.00048
568.04	0.09629	0.00041
568.07	0.09588	0.00031
568.12	0.09679	0.00034
568.16	0.09399	0.00042
568.19	0.0999	0.00046
568.24	0.09903	0.00056
568.28	0.10005	0.00046
568.31	0.09405	0.00055
568.36	0.09415	0.00041
568.4	0.09888	0.00033
568.43	0.10015	0.0002
568.48	0.09995	0.00044
568.52	0.09903	0.00039
568.56	0.09817	0.00033
568.6	0.10015	0.00044
568.64	0.09934	0.00076
568.68	0.09883	0.00041
568.72	0.09985	0.00034
568.76	0.09817	0.00033
568.8	0.09415	0.00034
568.84	0.09985	0.00025
568.88	0.09695	0.00027
568.92	0.10377	0.00033
568.95	0.10367	0.00042
569.0	0.10173	0.0004
569.04	0.10189	0.00034
569.07	0.09802	0.00046
569.12	0.09695	0.00027
569.16	0.09435	0.00038
569.19	0.09603	0.00053
569.24	0.09598	0.00051
569.28	0.10367	0.00027
569.31	0.09715	0.0004
569.36	0.10311	0.0006
569.4	0.09629	0.00041
569.43	0.09812	0.00031
569.48	0.0999	0.00046
569.52	0.0999	0.00033
569.56	0.09975	0.00047
569.6	0.09817	0.00046
569.64	0.0973	0.00065
569.68	0.09807	0.00036
569.72	0.09623	0.00034
569.76	0.09995	0.00038
569.8	0.10173	0.00033
569.84	0.10214	0.00048
569.88	0.09613	0.00033
569.92	0.09333	0.00038
569.95	0.09399	0.00048
570.0	0.10092	0.00033
570.04	0.09898	0.00048
570.07	0.10077	0.00041
570.12	0.10087	0.00041
570.16	0.09226	0.00033
570.19	0.09985	0.00034
570.24	0.10306	0.00053
570.28	0.10178	0.00065
570.31	0.09135	0.00048
570.36	0.0971	0.00031
570.4	0.0997	0.00051
570.43	0.09995	0.00038
570.48	0.10199	0.00055
570.52	0.09674	0.00034
570.56	0.09761	0.0005
570.6	0.09995	0.0005
570.64	0.09802	0.00032
570.68	0.09771	0.00041
570.72	0.09817	0.0004
570.76	0.0914	0.00051
570.8	0.10077	0.00047
570.84	0.09791	0.00055
570.88	0.09715	0.0004
570.92	0.09883	0.00057
570.95	0.09532	0.00033
571.0	0.0969	0.00031
571.04	0.0972	0.00047
571.07	0.09639	0.00031
571.12	0.09593	0.00058
571.16	0.1001	0.00027
571.19	0.09705	0.00058
571.24	0.09425	0.00052
571.28	0.09883	0.00047
571.31	0.09888	0.00056
571.36	0.09914	0.0005
571.4	0.10082	0.00034
571.43	0.09608	0.00055
571.48	0.09807	0.00027
571.52	0.10097	0.00038
571.56	0.09766	0.00046
571.6	0.09817	0.0004
571.64	0.09527	0.00052
571.68	0.10082	0.00034
571.72	0.09527	0.00052
571.76	0.09898	0.00062
571.8	0.09455	0.0002
571.84	0.1027	0.00038
571.88	0.09695	0.00027
571.92	0.09705	0.00036
571.95	0.09898	0.00048
572.0	0.09797	0.00042
572.04	0.10265	0.00027
572.07	0.09608	0.0002
572.12	0.10102	0.00036
572.16	0.10097	0.0005
572.19	0.10092	0.00023
572.24	0.10021	0.00023
572.28	0.09802	0.00051
572.31	0.09995	0.00038
572.36	0.09878	0.00041
572.4	0.09797	0.00042
572.43	0.09878	0.00025
572.48	0.09909	0.00036
572.52	0.10626	0.00031
572.56	0.09685	0.00051
572.6	0.09318	0.00034
572.64	0.09883	0.00047
572.68	0.0998	0.00025
572.72	0.09629	0.00047
572.76	0.09822	0.00025
572.8	0.09776	0.00034
572.84	0.10652	0.00033
572.88	0.09995	0.00044
572.92	0.097	0.00046
572.95	0.0973	0.00061
573.0	0.09598	0.00023
573.04	0.10652	0.00056
573.07	0.10657	0.00038
573.12	0.09695	0.00036
573.16	0.10005	0.00032
573.19	0.0944	0.00036
573.24	0.09888	0.0004
573.28	0.09878	0.00041
573.31	0.09231	0.00038
573.36	0.09995	0.00038
573.4	0.09975	0.00047
573.43	0.09634	0.0004
573.48	0.10102	0.00042
573.52	0.0914	0.00039
573.56	0.10265	0.00027
573.6	0.09914	0.00044
573.64	0.09903	0.00046
573.68	0.09898	0.00053
573.72	0.0972	0.00052
573.76	0.09888	0.00056
573.8	0.10092	0.00033
573.84	0.09914	0.0005
573.88	0.1028	0.00041
573.92	0.09522	0.00025
573.95	0.09527	0.00052
574.0	0.09715	0.00056
574.04	0.10265	0.00042
574.07	0.10173	0.00046
574.12	0.09954	0.00046
574.16	0.1027	0.00031
574.19	0.10178	0.00041
574.24	0.09893	0.00038
574.28	0.09883	0.00057
574.31	0.09705	0.00027
574.36	0.09741	0.00038
574.4	0.0917	0.00034
574.43	0.10163	0.00036
574.48	0.10077	0.00034
574.52	0.09313	0.00052
574.56	0.09333	0.00044
574.6	0.10102	0.00042
574.64	0.09511	0.00065
574.68	0.10474	0.00038
574.72	0.09786	0.00033
574.76	0.10021	0.0004
574.8	0.09817	0.00051
574.84	0.10275	0.00033
574.88	0.10285	0.00025
574.92	0.10097	0.0005
574.95	0.10275	0.00033
575.0	0.09791	0.0005
575.04	0.10377	0.00033
575.07	0.09618	0.00041
575.12	0.09705	0.00036
575.16	0.09685	0.00033
575.19	0.10204	0.00027
575.24	0.0998	0.00041
575.28	0.1026	0.00056
575.31	0.09822	0.00034
575.36	0.1057	0.00036
575.4	0.09914	0.00055
575.43	0.09888	0.0004
575.48	0.10275	0.00051
575.52	0.10082	0.00025
575.56	0.09618	0.00034
575.6	0.09695	0.00027
575.64	0.10082	0.00047
575.68	0.09537	0.00031
575.72	0.10362	0.00032
575.76	0.10387	0.00025
575.8	0.1	0.00053
575.84	0.10362	0.00032
575.88	0.09995	0.00031
575.92	0.09893	0.00031
575.95	0.1084	0.00034
576.0	0.10652	0.0006
576.04	0.10621	0.00042
576.07	0.10178	0.00025
576.12	0.10163	0.00062
576.16	0.10071	0.00023
576.19	0.09903	0.0006
576.24	0.09995	0.0002
576.28	0.1001	0.00042
576.31	0.1	0.00048
576.36	0.10178	0.00057
576.4	0.10077	0.00034
576.43	0.10367	0.00042
576.48	0.10133	0.00025
576.52	0.10474	0.00038
576.56	0.10097	0.00044
576.6	0.10163	0.00042
576.64	0.10173	0.00033
576.68	0.10168	0.00044
576.72	0.09995	0.00055
576.76	0.10443	0.00034
576.8	0.10647	0.00025
576.84	0.10377	0.00033
576.88	0.10092	0.00033
576.92	0.10056	0.00046
576.95	0.09634	0.00046
577.0	0.10087	0.00052
577.04	0.10087	0.00034
577.07	0.10749	0.00025
577.12	0.09634	0.00051
577.16	0.10362	0.00039
577.19	0.09598	0.00039
577.24	0.09613	0.00033
577.28	0.1	0.00027
577.31	0.0972	0.00025
577.36	0.10077	0.00025
577.4	0.09822	0.00034
577.43	0.09532	0.0004
577.48	0.09685	0.00023
577.52	0.09746	0.00036
577.56	0.097	0.00051
577.6	0.09613	0.0004
577.64	0.09135	0.00036
577.68	0.09903	0.0006
577.72	0.09725	0.00041
577.76	0.09995	0.0005
577.8	0.09995	0.00038
577.84	0.10087	0.00034
577.88	0.09705	0.00053
577.92	0.1027	0.00044
577.95	0.10469	0.00027
578.0	0.10723	0.00036
578.04	0.09634	0.0004
578.07	0.0972	0.00052
578.12	0.0971	0.00038
578.16	0.10082	0.00041
578.19	0.09975	0.00041
578.24	0.09705	0.00036
578.28	0.09425	0.00034
578.31	0.09705	0.00042
578.36	0.09634	0.00046
578.4	0.09608	0.00055
578.43	0.09425	0.00057
578.48	0.1	0.00042
578.52	0.09476	0.00052
578.56	0.09618	0.00041
578.6	0.09822	0.00034
578.64	0.09797	0.00042
578.68	0.10464	0.00039
578.72	0.10443	0.00025
578.76	0.10005	0.00039
578.8	0.09903	0.00032
578.84	0.10219	0.00031
578.88	0.09888	0.00056
578.92	0.0969	0.00031
578.95	0.10097	0.0002
579.0	0.10066	0.00038
579.04	0.09695	0.00036
579.07	0.09878	0.00041
579.12	0.09318	0.00047
579.16	0.09522	0.00041
579.19	0.09817	0.00033
579.24	0.09435	0.00038
579.28	0.09435	0.00038
579.31	0.1027	0.00044
579.36	0.10021	0.00056
579.4	0.09333	0.0005
579.43	0.10005	0.00046
579.48	0.10173	0.00051
579.52	0.10117	0.00038
579.56	0.09776	0.00047
579.6	0.09807	0.00027
579.64	0.10071	0.00023
579.68	0.10005	0.00046
579.72	0.09333	0.00059
579.76	0.09695	0.00036
579.8	0.09425	0.00025
579.84	0.09608	0.00031
579.88	0.09623	0.00025
579.92	0.09802	0.00039
579.95	0.10005	1.38778e-17
580.0	0.0943	0.00023
580.04	0.09618	0.00057
580.07	0.10061	0.00048
580.12	0.1	0.00036
580.16	0.1	0.00048
580.19	0.0999	0.00046
580.24	0.10183	0.00047
580.28	0.09802	0.00032
580.31	0.09781	0.00034
580.36	0.10189	0.00041
580.4	0.10178	0.00034
580.43	0.0971	0.00044
580.48	0.09725	0.00061
580.52	0.10448	0.0004
580.56	0.10642	0.00025
580.6	0.10107	0.00032
580.64	0.10204	0.00027
580.68	0.09883	0.00061
580.72	0.09674	0.00034
580.76	0.09725	0.00025
580.8	0.09807	0.00027
580.84	0.09725	0.00041
580.88	0.09903	0.00046
580.92	0.09985	0.00057
580.95	0.09812	0.00038
581.0	0.10194	0.0004
581.04	0.09919	0.00023
581.07	0.09893	0.00038
581.12	0.1027	0.00031
581.16	0.09903	0.00051
581.19	0.0999	0.00056
581.24	0.10372	0.0005
581.28	0.1027	0.00031
581.31	0.10173	0.0004
581.36	0.10189	0.00047
581.4	0.09802	0.00039
581.43	0.09613	0.00033
581.48	0.1	0.00058
581.52	0.10021	0.00046
581.56	0.10285	0.00041
581.6	0.10097	0.00031
581.64	0.10087	0.00047
581.68	0.10066	0.00031
581.72	0.10469	0.00042
581.76	0.10382	0.00034
581.8	0.10265	0.00027
581.84	0.09985	0.00057
581.88	0.09791	0.0005
581.92	0.10178	0.00041
581.95	0.10189	0.00047
582.0	0.10015	0.00031
582.04	0.10173	0.00051
582.07	0.10173	0.00046
582.12	0.111	0.00025
582.16	0.1027	0.00044
582.19	0.10942	0.00034
582.24	0.10912	0.0005
582.28	0.1056	0.00042
582.31	0.1056	0.00042
582.36	0.09985	0.00047
582.4	0.1001	0.00036
582.43	0.10173	0.00051
582.48	0.09807	0.00027
582.52	0.10306	0.00042
582.56	0.1029	0.00034
582.6	0.09924	0.00047
582.64	0.10061	0.00027
582.68	0.09613	0.00033
582.72	0.10097	0.00031
582.76	0.09623	0.00052
582.8	0.09919	0.00046
582.84	0.09924	0.00041
582.88	0.10581	0.0004
582.92	0.09491	0.00042
582.95	0.10015	0.00044
583.0	0.1	0.00066
583.04	0.10097	0.00055
583.07	0.09797	0.00058
583.12	0.09817	0.0004
583.16	0.10189	0.00034
583.19	0.09613	0.00046
583.24	0.09354	0.00031
583.28	0.09623	0.00025
583.31	0.09797	0.00027
583.36	0.10005	0.00032
583.4	0.09822	0.00025
583.43	0.09802	0.00032
583.48	0.09802	0.00032
583.52	0.09812	0.00064
583.56	0.09797	0.00048
583.6	0.09924	0.00047
583.64	0.09909	0.00053
583.68	0.09802	0.00032
583.72	0.09797	0.00042
583.76	0.10092	0.0004
583.8	0.0972	0.00041
583.84	0.10163	0.00053
583.88	0.0973	0.00057
583.92	0.09715	0.0004
583.95	0.0942	0.00034
584.0	0.09435	0.00044
584.04	0.09903	0.00046
584.07	0.09807	0.00042
584.12	0.09511	0.0004
584.16	0.09226	0.00033
584.19	0.10173	0.00065
584.24	0.0969	0.00055
584.28	0.09893	0.00031
584.31	0.09898	0.00042
584.36	0.10071	0.0004
584.4	0.1001	0.00053
584.43	0.09985	0.00041
584.48	0.10189	0.00052
584.52	0.09883	0.00025
584.56	0.097	0.00032
584.6	0.09715	0.00046
584.64	0.0944	0.00027
584.68	0.09893	0.00031
584.72	0.10005	0.00039
584.76	0.1001	0.00058
584.8	0.09888	0.00046
584.84	0.10245	0.00046
584.88	0.09593	0.00048
584.92	0.09593	0.00036
584.95	0.10367	0.00042
585.0	0.09725	0.00041
585.04	0.10484	0.00034
585.07	0.0971	0.00038
585.12	0.09348	0.00048
585.16	0.09817	0.00033
585.19	0.09817	0.00033
585.24	0.10555	0.00031
585.28	0.09878	0.00052
585.31	0.10066	0.0002
585.36	0.09527	0.00041
585.4	0.09898	0.00042
585.43	0.0971	0.00044
585.48	0.09685	0.0004
585.52	0.1001	0.00036
585.56	0.1027	0.00038
585.6	0.09898	0.00042
585.64	0.09705	0.00042
585.68	0.1	0.00027
585.72	0.09797	0.00036
585.76	0.10265	0.00048
585.8	0.10265	0.00036
585.84	0.09888	0.00033
585.88	0.1055	0.0004
585.92	0.09985	0.00041
585.95	0.09791	0.00031
586.0	0.10015	0.0005
586.04	0.09608	0.0005
586.07	0.09608	0.00038
586.12	0.10071	0.00046
586.16	0.10021	0.0004
586.19	0.097	0.00039
586.24	0.10372	0.00044
586.28	0.09532	0.00033
586.31	0.09623	0.00041
586.36	0.09608	0.00044
586.4	0.10189	0.00041
586.43	0.09425	0.00047
586.48	0.10087	0.00034
586.52	0.09506	0.0005
586.56	0.10397	0.00033
586.6	0.10189	0.00047
586.64	0.09613	0.0004
586.68	0.09618	0.00041
586.72	0.10199	0.00044
586.76	0.09715	0.00046
586.8	0.09909	0.00042
586.84	0.10382	0.00034
586.88	0.10178	0.00047
586.92	0.09817	0.0004
586.95	0.09802	0.00032
587.0	0.09685	0.00033
587.04	0.09797	0.00015
587.07	0.09914	0.00038
587.12	0.0997	0.00046
587.16	0.10005	0.00051
587.19	0.10469	0.00036
587.24	0.10168	0.00038
587.28	0.10173	0.00033
587.31	0.09797	0.00015
587.36	0.10102	0.00048
587.4	0.10458	0.00036
587.43	0.10275	0.0004
587.48	0.0999	0.00056
587.52	0.10189	0.00061
587.56	0.10204	0.00042
587.6	0.0997	0.00051
587.64	0.10275	0.00023
587.68	0.10662	0.00027
587.72	0.10107	0.00039
587.76	0.09613	0.00033
587.8	0.1028	0.00041
587.84	0.10275	0.00046
587.88	0.10168	0.00044
587.92	0.0999	0.00046
587.95	0.0972	0.00057
588.0	0.0999	0.0004
588.04	0.09995	0.00044
588.07	0.10082	0.00034
588.12	0.09914	0.00038
588.16	0.09888	0.00046
588.19	0.0972	0.00052
588.24	0.10499	0.00051
588.28	0.09791	0.00044
588.31	0.10133	0.00057
588.36	0.10275	0.00023
588.4	0.09873	0.00025
588.43	0.09914	0.0005
588.48	0.09893	0.00038
588.52	0.10469	0.00027
588.56	0.09832	0.00057
588.6	0.09781	0.00041
588.64	0.10387	0.00047
588.68	0.09802	0.00039
588.72	0.0971	0.00038
588.76	0.09725	0.00034
588.8	0.09506	0.0005
588.84	0.10102	0.00048
588.88	0.09023	0.0004
588.92	0.1001	0.00042
588.95	0.1054	0.00034
589.0	0.09613	0.00023
589.04	0.09613	0.00046
589.07	0.09985	0.00034
589.12	0.0999	0.00046
589.16	0.09517	0.00041
589.19	0.09878	0.00047
589.24	0.09165	0.00052
589.28	0.09807	0.00036
589.31	0.09812	0.0002
589.36	0.10082	0.00034
589.4	0.10143	0.0004
589.43	0.09501	0.00048
589.48	0.1028	0.00052
589.52	0.09033	0.00036
589.56	0.10306	0.00066
589.6	0.09715	0.00051
589.64	0.09705	0.00053
589.68	0.09822	0.00025
589.72	0.1056	0.00042
589.76	0.09995	0.0005
589.8	0.09893	0.00038
589.84	0.09883	0.00052
589.88	0.10514	0.00051
589.92	0.10565	0.00039
589.95	0.10285	0.00047
590.0	0.10255	0.00042
590.04	0.10015	0.00059
590.07	0.09985	0.00065
590.12	0.10066	0.00031
590.16	0.09893	0.00038
590.19	0.09909	0.00048
590.24	0.10204	0.00036
590.28	0.10835	0.00033
590.31	0.10362	0.00039
590.36	0.10458	0.00036
590.4	0.09695	0.00036
590.43	0.10372	0.0005
590.48	0.09873	0.00034
590.52	0.09914	0.00044
590.56	0.1054	0.00025
590.6	0.09522	0.00052
590.64	0.09623	0.00052
590.68	0.09532	0.0004
590.72	0.1001	0.00027
590.76	0.1029	0.00047
590.8	0.10301	0.00038
590.84	0.10443	0.00034
590.88	0.0999	0.0004
590.92	0.10362	0.00046
590.95	0.10178	0.00034
591.0	0.1083	0.00044
591.04	0.10642	0.00025
591.07	0.09903	0.00051
591.12	0.09919	0.00033
591.16	0.0943	0.00033
591.19	0.10087	0.00025
591.24	0.10387	0.00047
591.28	0.1026	0.00039
591.31	0.09705	0.00027
591.36	0.10077	0.00025
591.4	0.10082	0.00052
591.43	0.09868	0.0004
591.48	0.0969	0.00031
591.52	0.09791	0.00031
591.56	0.10458	0.00027
591.6	0.10295	0.00033
591.64	0.09919	0.0004
591.68	0.09903	0.00032
591.72	0.09318	0.00069
591.76	0.10372	0.00038
591.8	0.10199	0.00038
591.84	0.10087	0.00034
591.88	0.10306	0.00027
591.92	0.0971	0.0005
591.95	0.09613	0.00033
592.0	0.09618	0.00041
592.04	0.09888	0.00033
592.07	0.09888	0.0004
592.12	0.09903	0.00032
592.16	0.10102	0.00058
592.19	0.09914	0.00044
592.24	0.09715	0.00033
592.28	0.09705	0.00062
592.31	0.10749	0.00034
592.36	0.10372	0.00031
592.4	0.10357	0.00036
592.43	0.09786	0.00023
592.48	0.09791	0.0002
592.52	0.09903	0.00046
592.56	0.0969	0.00031
592.6	0.09725	0.00047
592.64	0.10005	0.00046
592.68	0.09435	0.00038
592.72	0.09226	0.0004
592.76	0.1001	0.00042
592.8	0.10066	0.00038
592.84	0.0915	0.00038
592.88	0.0917	0.00034
592.92	0.09822	0.00052
592.95	0.1001	0.00036
593.0	0.09797	0.00027
593.04	0.09511	0.00051
593.07	0.10071	0.00033
593.12	0.10275	0.00033
593.16	0.1029	0.00052
593.19	0.09455	0.00038
593.24	0.1001	0.00027
593.28	0.0972	0.00034
593.31	0.097	0.00032
593.36	0.09725	0.00061
593.4	0.09522	0.00041
593.43	0.09791	0.0002
593.48	0.09807	0.00042
593.52	0.10647	0.00034
593.56	0.09598	0.00039
593.6	0.09893	0.00031
593.64	0.09588	0.00038
593.68	0.10021	0.00033
593.72	0.1	0.00027
593.76	0.09995	0.00031
593.8	0.1001	0.00036
593.84	0.10484	0.00041
593.88	0.09527	0.00052
593.92	0.0942	0.00025
593.95	0.09522	0.00034
594.0	0.10071	0.00056
594.04	0.10087	0.00025
594.07	0.09613	0.00046
594.12	0.09995	0.00044
594.16	0.10316	0.00048
594.19	0.10173	0.00051
594.24	0.10066	0.0005
594.28	0.09975	0.00034
594.31	0.10097	0.00059
594.36	0.10082	0.00041
594.4	0.10077	0.00041
594.43	0.09522	0.00041
594.48	0.10056	0.00039
594.52	0.09715	0.00051
594.56	0.10087	0.00034
594.6	0.09603	0.00036
594.64	0.09608	0.00038
594.68	0.10082	0.00025
594.72	0.10433	0.00041
594.76	0.09975	0.00025
594.8	0.10387	0.00041
594.84	0.09679	0.00047
594.88	0.09893	0.00044
594.92	0.10026	0.00025
594.95	0.09995	0.00055
595.0	0.09527	0.00047
595.04	0.09511	0.0004
595.07	0.10061	0.00036
595.12	0.09903	0.00023
595.16	0.1001	0.00036
595.19	0.09725	0.00047
595.24	0.0969	0.00038
595.28	0.09812	0.00031
595.31	0.09639	0.00038
595.36	0.10092	0.0004
595.4	0.09354	0.00044
595.43	0.09786	0.00046
595.48	0.09802	0.00023
595.52	0.09802	0.00032
595.56	0.10087	0.00034
595.6	0.10382	0.00061
595.64	0.0972	0.00025
595.68	0.09807	0.00027
595.72	0.09425	0.00057
595.76	0.09919	0.0004
595.8	0.09807	0.00048
595.84	0.09802	0.00039
595.88	0.09995	0.0005
595.92	0.09898	0.00048
595.95	0.10082	0.00041
596.0	0.1028	0.00034
596.04	0.09598	0.0006
596.07	0.10214	0.00042
596.12	0.10178	0.00047
596.16	0.09878	0.00034
596.19	0.10448	0.0006
596.24	0.09919	0.00046
596.28	0.09623	0.00025
596.31	0.10087	0.00047
596.36	0.10183	0.00052
596.4	0.10183	0.00041
596.43	0.10168	0.00038
596.48	0.10458	0.00036
596.52	0.10168	0.00038
596.56	0.10082	0.00034
596.6	0.09318	0.00041
596.64	0.09919	0.00051
596.68	0.1001	0.00036
596.72	0.1	0.00048
596.76	0.09898	0.00053
596.8	0.09613	0.00023
596.84	0.09506	0.0005
596.88	0.10178	0.00034
596.92	0.09791	0.00038
596.95	0.09613	0.00033
597.0	0.09608	0.00038
597.04	0.09634	0.0004
597.07	0.09603	0.00027
597.12	0.10372	0.00031
597.16	0.10464	0.00023
597.19	0.10178	0.00041
597.24	0.0943	0.0004
597.28	0.0971	0.0005
597.31	0.0972	0.00041
597.36	0.0944	0.00027
597.4	0.1053	0.0004
597.43	0.10301	0.00038
597.48	0.09898	0.00036
597.52	0.1	0.00036
597.56	0.09695	0.00042
597.6	0.09695	0.00048
597.64	0.09985	0.00034
597.68	0.0971	0.00038
597.72	0.10367	0.00036
597.76	0.09527	0.00052
597.8	0.10082	0.00041
597.84	0.10311	0.00039
597.88	0.10265	0.00042
597.92	0.10443	0.00041
597.95	0.09802	0.00023
598.0	0.09618	0.00025
598.04	0.10443	0.00034
598.07	0.09888	0.00046
598.12	0.09903	0.00032
598.16	0.0998	0.00041
598.19	0.0999	0.00023
598.24	0.09308	0.00056
598.28	0.1055	0.0004
598.31	0.10005	0.00039
598.36	0.1027	0.00059
598.4	0.1	0.00048
598.43	0.10764	0.00042
598.48	0.10744	0.00025
598.52	0.09786	0.00033
598.56	0.10138	0.00052
598.6	0.10275	0.00033
598.64	0.09985	0.00041
598.68	0.10015	0.00038
598.72	0.09705	0.00053
598.76	0.09888	0.00033
598.8	0.09903	0.00032
598.84	0.09903	0.00051
598.88	0.09797	0.00027
598.92	0.09247	0.00053
598.95	0.09903	0.00039
599.0	0.10178	0.00034
599.04	0.09786	0.00046
599.07	0.09807	0.00042
599.12	0.09975	0.00034
599.16	0.10189	0.00041
599.19	0.10265	0.00027
599.24	0.09893	0.00059
599.28	0.10275	0.0004
599.31	0.10367	0.00036
599.36	0.10357	0.00053
599.4	0.10479	0.00033
599.43	0.09924	0.00047
599.48	0.09644	0.00027
599.52	0.10377	0.0004
599.56	0.10647	0.00025
599.6	0.09888	0.0004
599.64	0.09705	0.00036
599.68	0.0971	0.00044
599.72	0.09909	0.00058
599.76	0.10082	0.00025
599.8	0.09878	0.00041
599.84	0.09608	0.00044
599.88	0.09517	0.00041
599.92	0.09898	0.00053
599.95	0.09883	0.00025
600.0	0.10209	0.00032
600.04	0.09791	0.00038
600.07	0.0943	0.00051
600.12	0.09781	0.00034
600.16	0.10652	0.0004
600.19	0.09527	0.00041
600.24	0.1026	0.00032
600.28	0.1028	0.00041
600.31	0.10005	0.00032
600.36	0.0942	0.00052
600.4	0.09415	0.00034
600.43	0.09893	0.00044
600.48	0.09313	0.00052
600.52	0.0971	0.0005
600.56	0.0971	0.00055
600.6	0.09791	0.00038
600.64	0.09313	0.00047
600.68	0.09608	0.00031
600.72	0.10357	0.00053
600.76	0.1	0.00027
600.8	0.09603	0.00036
600.84	0.09634	0.00023
600.88	0.09542	0.00036
600.92	0.09348	0.00048
600.95	0.10255	0.00042
601.0	0.09613	0.00033
601.04	0.09797	0.00048
601.07	0.09333	0.00031
601.12	0.0972	0.00041
601.16	0.0969	0.00038
601.19	0.10178	0.00052
601.24	0.09878	0.00057
601.28	0.10362	0.00032
601.31	0.09399	0.00036
601.36	0.09797	0.00027
601.4	0.09837	0.00033
601.43	0.09781	0.00041
601.48	0.09634	0.00046
601.52	0.09231	0.00044
601.56	0.1001	0.00048
601.6	0.09888	0.00046
601.64	0.09532	0.00051
601.68	0.097	0.00032
601.72	0.097	0.00023
601.76	0.10087	0.00041
601.8	0.09415	0.00047
601.84	0.09695	0.00036
601.88	0.09145	0.00048
601.92	0.09914	0.00055
601.95	0.09995	0.00038
602.0	0.09903	0.00051
602.04	0.09878	0.00047
602.07	0.09629	0.00034
602.12	0.10071	0.00056
602.16	0.09817	0.00033
602.19	0.09613	0.00051
602.24	0.10474	0.0005
602.28	0.10077	0.00034
602.31	0.10082	0.00034
602.36	0.0969	0.00038
602.4	0.09786	0.00033
602.43	0.09807	0.00027
602.48	0.09588	0.00038
602.52	0.10092	0.0004
602.56	0.10077	0.00041
602.6	0.10071	0.00023
602.64	0.10082	0.00047
602.68	0.09501	0.00062
602.72	0.10183	0.00025
602.76	0.09873	0.00052
602.8	0.09812	0.0002
602.84	0.09883	0.00047
602.88	0.0998	0.00041
602.92	0.09975	0.00041
602.95	0.10189	0.00047
603.0	0.10474	0.00044
603.04	0.10178	0.00034
603.07	0.09598	0.00039
603.12	0.09797	0.00042
603.16	0.09868	0.00051
603.19	0.09888	0.00051
603.24	0.10097	0.00038
603.28	0.10092	0.00033
603.31	0.10102	0.00036
603.36	0.09542	0.00036
603.4	0.10077	0.00057
603.43	0.10474	0.00044
603.48	0.1027	0.00031
603.52	0.1029	0.00034
603.56	0.09781	0.00034
603.6	0.10183	0.00047
603.64	0.09715	0.0004
603.68	0.1026	0.00032
603.72	0.10901	0.00047
603.76	0.10204	0.00042
603.8	0.10194	0.00046
603.84	0.1001	0.00036
603.88	0.09735	0.00051
603.92	0.1027	0.00044
603.95	0.10387	0.00034
604.0	0.10555	0.00031
604.04	0.09888	0.00051
604.07	0.09603	0.00042
604.12	0.09613	0.00033
604.16	0.09883	0.00047
604.19	0.10163	0.00042
604.24	0.09496	0.00046
604.28	0.10245	0.00023
604.31	0.10545	0.00047
604.36	0.10168	0.00055
604.4	0.10168	0.00044
604.43	0.09791	0.00055
604.48	0.1028	0.00041
604.52	0.10183	0.00052
604.56	0.09924	0.00061
604.6	0.10469	0.00042
604.64	0.09903	0.00032
604.68	0.09868	0.00046
604.72	0.10092	0.0004
604.76	0.09883	0.00034
604.8	0.10367	0.00053
604.84	0.10071	0.00023
604.88	0.0969	0.00031
604.92	0.10189	0.00041
604.95	0.10087	0.00034
605.0	0.10077	0.00041
605.04	0.10117	0.0005
605.07	0.09817	0.00033
605.12	0.10652	0.0004
605.16	0.10031	0.00041
605.19	0.1028	0.00025
605.24	0.10265	0.00027
605.28	0.1026	0.00046
605.31	0.09705	0.00053
605.36	0.09914	0.00038
605.4	0.09517	0.00052
605.43	0.09715	0.00023
605.48	0.10295	0.00056
605.52	0.09517	0.00041
605.56	0.09511	0.00033
605.6	0.10545	0.00057
605.64	0.10082	0.00052
605.68	0.09242	0.0006
605.72	0.09323	0.00041
605.76	0.09802	0.00023
605.8	0.09812	0.00044
605.84	0.09883	0.00041
605.88	0.09903	0.00032
605.92	0.09038	0.00039
605.95	0.09623	0.00047
606.0	0.09883	0.00047
606.04	0.10545	0.00065
606.07	0.1	0.00036
606.12	0.0943	0.00033
606.16	0.0944	0.00027
606.19	0.09791	0.0005
606.24	0.1027	0.0005
606.28	0.09501	0.00036
606.31	0.09898	0.00036
606.36	0.09608	0.00031
606.4	0.10077	0.00041
606.43	0.10087	0.00034
606.48	0.10066	0.00031
606.52	0.09751	0.00046
606.56	0.09975	0.00025
606.6	0.09898	0.00036
606.64	0.09741	0.00044
606.68	0.0973	0.00052
606.72	0.09888	0.00051
606.76	0.09893	0.00059
606.8	0.10178	0.00057
606.84	0.10077	0.00034
606.88	0.09603	0.00048
606.92	0.09033	0.00048
606.95	0.09247	0.00036
607.0	0.10285	0.00061
607.04	0.10265	0.00058
607.07	0.10077	0.00034
607.12	0.09705	0.00048
607.16	0.10372	0.00038
607.19	0.09903	0.00039
607.24	0.10453	0.00031
607.28	0.0944	0.00053
607.31	0.09797	0.00042
607.36	0.09797	0.00036
607.4	0.10632	0.00023
607.43	0.09898	0.00053
607.48	0.10306	0.00042
607.52	0.10077	0.00047
607.56	0.10199	0.00031
607.6	0.10102	0.00027
607.64	0.10087	0.00025
607.68	0.10275	0.00051
607.72	0.09924	0.00041
607.76	0.10178	0.00047
607.8	0.09802	0.00046
607.84	0.10107	0.00032
607.88	0.09995	0.00031
607.92	0.0969	0.0005
607.95	0.09715	0.00033
608.0	0.09613	0.00046
608.04	0.09522	0.00047
608.07	0.1029	0.00034
608.12	0.09985	0.00047
608.16	0.10214	0.00036
608.19	0.09791	0.00031
608.24	0.09832	0.00061
608.28	0.097	0.00032
608.31	0.10082	0.00041
608.36	0.09511	0.00033
608.4	0.09903	0.00039
608.43	0.09888	0.0004
608.48	0.09685	0.00033
608.52	0.097	0.00039
608.56	0.09517	0.00041
608.6	0.1	0.00027
608.64	0.09797	0.00036
608.68	0.09343	0.00051
608.72	0.1029	0.00047
608.76	0.09598	0.00032
608.8	0.10744	0.00065
608.84	0.10718	0.00023
608.88	0.10189	0.00047
608.92	0.10071	0.00023
608.95	0.10102	0.00042
609.0	0.0945	0.00036
609.04	0.09552	0.00058
609.07	0.1026	0.00039
609.12	0.1028	0.00065
609.16	0.09903	0.00051
609.19	0.09629	0.00025
609.24	0.09797	0.00062
609.28	0.10071	0.00023
609.31	0.09104	0.0004
609.36	0.09985	0.00025
609.4	0.1	0.00053
609.43	0.097	0.0
609.48	0.0999	0.00051
609.52	0.1027	0.00044
609.56	0.09532	0.00046
609.6	0.09623	0.00034
609.64	0.1	0.00036
609.68	0.10082	0.00025
609.72	0.10046	0.00038
609.76	0.09725	0.00041
609.8	0.09888	0.00056
609.84	0.09807	0.00036
609.88	0.10005	0.00032
609.92	0.09532	0.0004
609.95	0.10097	0.00031
610.0	0.10077	0.00047
610.04	0.10301	0.00031
610.07	0.09898	0.00048
610.12	0.1	0.00036
610.16	0.09735	0.00046
610.19	0.10199	0.00044
610.24	0.09517	0.00041
610.28	0.09883	0.00034
610.31	0.09893	0.0005
610.36	0.09995	0.0005
610.4	0.0969	0.00044
610.43	0.10199	0.00038
610.48	0.09812	0.0005
610.52	0.10469	0.00036
610.56	0.10382	0.00041
610.6	0.10377	0.00023
610.64	0.10372	0.00044
610.68	0.09608	0.00055
610.72	0.09873	0.00034
610.76	0.10306	0.00062
610.8	0.09445	0.00039
610.84	0.10112	0.00027
610.88	0.10046	0.00038
610.92	0.10077	0.00034
610.95	0.09613	0.0006
611.0	0.09226	0.00033
611.04	0.10581	0.0004
611.07	0.10005	0.00032
611.12	0.09634	0.00033
611.16	0.0943	0.00046
611.19	0.09435	0.00031
611.24	0.10082	0.00047
611.28	0.09985	0.00034
611.31	0.09613	0.0004
611.36	0.09695	0.00015
611.4	0.10178	0.00034
611.43	0.10525	0.00038
611.48	0.10586	0.00034
611.52	0.09394	0.00046
611.56	0.09822	0.00041
611.6	0.10443	0.00034
611.64	0.10214	0.00036
611.68	0.09802	0.00032
611.72	0.10163	0.00042
611.76	0.09405	0.00038
611.8	0.0942	0.00057
611.84	0.1028	0.00041
611.88	0.09878	0.00052
611.92	0.09888	0.00051
611.95	0.1025	0.0002
612.0	0.09807	0.00048
612.04	0.10275	0.00051
612.07	0.1027	0.00031
612.12	0.10295	0.00046
612.16	0.09807	0.00027
612.19	0.09893	0.00038
612.24	0.10112	0.00053
612.28	0.09608	0.00038
612.31	0.0971	0.00044
612.36	0.09705	0.00027
612.4	0.09888	0.00033
612.43	0.09914	0.00064
612.48	0.09786	0.0004
612.52	0.09511	0.00046
612.56	0.10158	0.00056
612.6	0.09786	0.00033
612.64	0.09797	0.00062
612.68	0.09817	0.00023
612.72	0.09598	0.00046
612.76	0.10275	0.00023
612.8	0.09618	0.00065
612.84	0.09629	0.00025
612.88	0.10346	0.0004
612.92	0.10194	0.00046
612.95	0.10183	0.00052
613.0	0.09236	0.00027
613.04	0.10637	0.00052
613.07	0.10301	0.00059
613.12	0.10097	0.00055
613.16	0.10178	0.00047
613.19	0.09522	0.00047
613.24	0.09527	0.00052
613.28	0.09405	0.00044
613.31	0.10082	0.00034
613.36	0.09705	0.00053
613.4	0.09603	0.00036
613.43	0.09975	0.00034
613.48	0.10097	0.00038
613.52	0.097	0.00023
613.56	0.09705	0.00042
613.6	0.0972	0.00047
613.64	0.09919	0.00046
613.68	0.10255	0.00036
613.72	0.09685	0.00046
613.76	0.09807	0.00015
613.8	0.10458	0.00027
613.84	0.10464	0.00039
613.88	0.09791	0.00031
613.92	0.09527	0.00047
613.95	0.10204	0.00036
614.0	0.10082	0.00041
614.04	0.10275	0.00046
614.07	0.09893	0.0005
614.12	0.09506	0.00038
614.16	0.09527	0.00052
614.19	0.09705	0.00058
614.24	0.09425	0.00047
614.28	0.09995	0.0005
614.31	0.10097	0.00038
614.36	0.09898	0.00048
614.4	0.09791	0.00031
614.43	0.09781	0.00025
614.48	0.09812	0.00038
614.52	0.09522	0.00073
614.56	0.09791	0.00044
614.6	0.09786	0.00046
614.64	0.09995	0.00038
614.68	0.097	0.00032
614.72	0.09705	0.00048
614.76	0.09802	0.00046
614.8	0.10387	0.00034
614.84	0.09629	0.00034
614.88	0.0969	0.0005
614.92	0.09898	0.00042
614.95	0.0972	0.00041
615.0	0.10331	0.00052
615.04	0.10357	0.00036
615.07	0.09608	0.00031
615.12	0.10189	0.00041
615.16	0.09817	0.00056
615.19	0.10021	0.00033
615.24	0.10209	0.00032
615.28	0.10005	0.00039
615.31	0.0999	0.0004
615.36	0.09909	0.00027
615.4	0.10071	0.00033
615.43	0.09298	0.00053
615.48	0.09898	0.00027
615.52	0.0999	0.00033
615.56	0.09552	0.00053
615.6	0.09975	0.00047
615.64	0.09975	0.00034
615.68	0.10194	0.00051
615.72	0.10194	0.0004
615.76	0.09802	0.00046
615.8	0.09985	0.00041
615.84	0.10005	0.00039
615.88	0.10102	0.00048
615.92	0.10092	0.00051
615.95	0.09517	0.00034
616.0	0.10341	0.00052
616.04	0.09985	0.00034
616.07	0.09623	0.00047
616.12	0.09618	0.00041
616.16	0.10265	0.00048
616.19	0.10285	0.00034
616.24	0.10158	0.00046
616.28	0.0998	0.00041
616.31	0.0969	0.00031
616.36	0.09623	0.00034
616.4	0.09812	0.00038
616.43	0.10357	0.00048
616.48	0.09909	0.00042
616.52	0.09929	0.00041
616.56	0.09888	0.00065
616.6	0.10265	0.00027
616.64	0.09527	0.00065
616.68	0.09786	0.00033
616.72	0.08956	0.00025
616.76	0.09247	0.00048
616.8	0.09226	0.00023
616.84	0.10087	0.00041
616.88	0.09623	0.00041
616.92	0.09802	0.00032
616.95	0.09685	0.00033
617.0	0.0999	0.00033
617.04	0.0973	0.00052
617.07	0.09715	0.0006
617.12	0.10346	0.0004
617.16	0.09817	0.00051
617.19	0.10728	0.0002
617.24	0.0973	0.00034
617.28	0.09822	0.00041
617.31	0.10097	0.0005
617.36	0.09695	0.00048
617.4	0.0972	0.00041
617.43	0.10392	0.00041
617.48	0.10382	0.00034
617.52	0.09511	0.00046
617.56	0.097	0.00032
617.6	0.10204	0.00036
617.64	0.09705	0.00048
617.68	0.0969	0.00055
617.72	0.09909	0.00053
617.76	0.10535	0.00034
617.8	0.10367	0.00053
617.84	0.10382	0.00034
617.88	0.1056	0.00042
617.92	0.10626	0.00031
617.95	0.10189	0.00034
618.0	0.10183	0.00065
618.04	0.10845	0.00034
618.07	0.10362	0.00051
618.12	0.10937	0.0006
618.16	0.10382	0.00052
618.19	0.09786	0.0004
618.24	0.10657	0.00038
618.28	0.10632	0.00023
618.31	0.10525	0.00031
618.36	0.111	0.00041
618.4	0.1109	0.00046
618.43	0.11207	0.00034
618.48	0.11029	0.00048
618.52	0.1084	0.00034
618.56	0.10825	0.00053
618.6	0.11283	0.00036
618.64	0.1057	0.00048
618.68	0.10856	0.00033
618.72	0.11691	0.00042
618.76	0.11146	0.00052
618.8	0.11222	0.00053
618.84	0.10912	0.0005
618.88	0.10952	0.00047
618.92	0.11497	0.00046
618.95	0.11044	0.00025
619.0	0.11309	0.00057
619.04	0.11054	0.00041
619.07	0.11237	0.00031
619.12	0.10545	0.00047
619.16	0.1054	0.00034
619.19	0.11018	0.00036
619.24	0.114	0.00057
619.28	0.10754	0.00051
619.31	0.10657	0.00055
619.36	0.11044	0.00047
619.4	0.10637	0.00041
619.43	0.09802	0.00032
619.48	0.09791	0.0002
619.52	0.10576	0.00044
619.56	0.10178	0.00041
619.6	0.10443	0.00034
619.64	0.10066	0.00038
619.68	0.09893	0.0005
619.72	0.1055	0.0006
619.76	0.10535	0.00041
619.8	0.10163	0.00042
619.84	0.10647	0.00047
619.88	0.09807	0.00053
619.92	0.10194	0.00046
619.95	0.10591	0.00025
620.0	0.09807	0.00027
620.04	0.09812	0.00044
620.07	0.10621	0.00048
620.12	0.09995	0.00038
620.16	0.09995	0.00038
620.19	0.1027	0.00031
620.24	0.09705	0.00036
620.28	0.10082	0.00061
620.31	0.10183	0.00034
620.36	0.10189	0.00034
620.4	0.09898	0.00066
620.43	0.10555	0.00044
620.48	0.10082	0.00034
620.52	0.10163	0.00048
620.56	0.10082	0.00041
620.6	0.10077	0.00041
620.64	0.10051	0.00048
620.68	0.09445	0.00032
620.72	0.1054	0.00052
620.76	0.10275	0.0004
620.8	0.09807	0.00027
620.84	0.09812	0.00055
620.88	0.10362	0.00039
620.92	0.10387	0.00041
620.95	0.10015	0.00031
621.0	0.10214	0.00042
621.04	0.10097	0.00038
621.07	0.09903	0.00046
621.12	0.10275	0.00023
621.16	0.1027	0.00059
621.19	0.10469	0.00027
621.24	0.10464	0.00046
621.28	0.10464	0.00046
621.31	0.10464	0.00032
621.36	0.10285	0.00025
621.4	0.10275	0.00051
621.43	0.10087	0.00041
621.48	0.1055	0.0004
621.52	0.1055	0.00033
621.56	0.10667	0.00039
621.6	0.10377	0.0004
621.64	0.10896	0.00047
621.68	0.10387	0.00041
621.72	0.10245	0.00033
621.76	0.10382	0.00041
621.8	0.111	0.00047
621.84	0.1113	0.00048
621.88	0.11039	0.00033
621.92	0.11237	0.00044
621.95	0.11787	0.00051
622.0	0.12067	0.00025
622.04	0.11512	0.00047
622.07	0.11594	0.00038
622.12	0.11594	0.00064
622.16	0.12602	0.00039
622.19	0.12159	0.0004
622.24	0.11609	0.00034
622.28	0.12719	0.00033
622.31	0.13289	0.00034
622.36	0.13299	0.00023
622.4	0.1331	0.00036
622.43	0.13478	0.00038
622.48	0.13951	0.00057
622.52	0.13951	0.00065
622.56	0.13747	0.00034
622.6	0.13859	0.0004
622.64	0.13666	0.00042
622.68	0.13732	0.00044
622.72	0.13753	0.00034
622.76	0.1471	0.00041
622.8	0.13839	0.00033
622.84	0.14491	0.00036
622.88	0.14134	0.00066
622.92	0.14048	0.00034
622.95	0.13951	0.00041
623.0	0.13936	0.00044
623.04	0.14053	0.00041
623.07	0.1359	0.00052
623.12	0.14043	0.00056
623.16	0.13931	0.00036
623.19	0.12938	0.00025
623.24	0.13671	0.00039
623.28	0.12454	0.00036
623.31	0.1247	0.00025
623.36	0.13121	0.00044
623.4	0.12449	0.00039
623.43	0.12358	0.00059
623.48	0.11609	0.00034
623.52	0.12072	0.00041
623.56	0.12072	0.00041
623.6	0.12077	0.00023
623.64	0.11018	0.00048
623.68	0.1083	0.00038
623.72	0.10825	0.00027
623.76	0.11278	0.00051
623.8	0.11614	0.00034
623.84	0.10652	0.00046
623.88	0.10647	0.00034
623.92	0.1056	0.00042
623.95	0.1027	0.00031
624.0	0.10082	0.00025
624.04	0.10647	0.00034
624.07	0.1056	0.00062
624.12	0.10071	0.0004
624.16	0.10071	0.0004
624.19	0.10107	0.00039
624.24	0.10178	0.00052
624.28	0.10183	0.00041
624.31	0.10189	0.00047
624.36	0.09786	0.0004
624.4	0.10097	0.0002
624.43	0.10535	0.00034
624.48	0.10555	0.0005
624.52	0.1026	0.00051
624.56	0.0998	0.00034
624.6	0.09802	0.00032
624.64	0.10265	0.00027
624.68	0.09791	0.00031
624.72	0.10168	0.00044
624.76	0.10173	0.00046
624.8	0.10173	0.00051
624.84	0.10397	0.00033
624.88	0.09501	0.00048
624.92	0.10285	0.00034
624.95	0.10092	0.0004
625.0	0.10474	0.00038
625.04	0.09236	0.00042
625.07	0.09247	0.00042
625.12	0.1056	0.00042
625.16	0.0999	0.00033
625.19	0.09491	0.00053
625.24	0.10708	0.00038
625.28	0.1	0.00053
625.31	0.09888	0.0004
625.36	0.09909	0.00053
625.4	0.10087	0.00025
625.43	0.10458	0.00048
625.48	0.09985	0.00034
625.52	0.10087	0.00061
625.56	0.09807	0.00048
625.6	0.09807	0.00027
625.64	0.10194	0.00033
625.68	0.10168	0.00044
625.72	0.10341	0.00052
625.76	0.1	0.00015
625.8	0.10377	0.00033
625.84	0.10626	0.00031
625.88	0.10087	0.00025
625.92	0.09715	0.00051
625.95	0.0972	0.00052
626.0	0.10209	0.00051
626.04	0.10194	0.00051
626.07	0.10285	0.00041
626.12	0.10077	0.00034
626.16	0.10077	0.00034
626.19	0.0999	0.0004
626.24	0.1	0.00042
626.28	0.10077	0.00041
626.31	0.09685	0.00033
626.36	0.10066	0.00044
626.4	0.0943	0.00023
626.43	0.10657	0.00038
626.48	0.09903	0.00039
626.52	0.10458	0.00027
626.56	0.10438	0.00034
626.6	0.10275	0.00033
626.64	0.10178	0.00061
626.68	0.10031	0.00034
626.72	0.09985	0.00034
626.76	0.10331	0.00052
626.8	0.09812	0.00038
626.84	0.09817	0.00033
626.88	0.09873	0.00025
626.92	0.09898	0.00048
626.95	0.09893	0.00044
627.0	0.10194	0.00033
627.04	0.10092	0.00051
627.07	0.10066	0.00031
627.12	0.09898	0.00053
627.16	0.09909	0.00042
627.19	0.10438	0.00034
627.24	0.09893	0.00055
627.28	0.10005	0.00032
627.31	0.10071	0.00033
627.36	0.09914	0.0005
627.4	0.09975	0.00041
627.43	0.1	0.00036
627.48	0.10071	0.00033
627.52	0.0998	0.00047
627.56	0.10759	0.00031
627.6	0.10733	0.00046
627.64	0.09593	0.00053
627.68	0.10377	0.00046
627.72	0.10372	0.00038
627.76	0.10723	0.00058
627.8	0.10178	0.00041
627.84	0.10372	0.00038
627.88	0.1055	0.00033
627.92	0.10087	0.00034
627.95	0.10265	0.00036
628.0	0.10922	0.00039
628.04	0.10922	0.00039
628.07	0.10754	0.00056
628.12	0.10489	0.00025
628.16	0.1111	0.0004
628.19	0.1113	0.00053
628.24	0.10733	0.00033
628.28	0.1055	0.00033
628.31	0.1055	0.0004
628.36	0.1112	0.00048
628.4	0.11395	0.0004
628.43	0.10932	0.00044
628.48	0.10642	0.00025
628.52	0.10209	0.00039
628.56	0.10749	0.00047
628.6	0.10749	0.00047
628.64	0.10728	0.00031
628.68	0.1139	0.00044
628.72	0.11024	0.00032
628.76	0.11029	0.00036
628.8	0.10759	0.00038
628.84	0.11018	0.00027
628.88	0.11125	0.00039
628.92	0.111	0.00041
628.95	0.11507	0.00025
629.0	0.11884	0.00042
629.04	0.11212	0.00023
629.07	0.1137	0.00044
629.12	0.11212	0.00033
629.16	0.11314	0.00046
629.19	0.11293	0.00051
629.24	0.11034	0.00031
629.28	0.1137	0.00038
629.31	0.11477	0.00042
629.36	0.10362	0.00046
629.4	0.10998	0.00047
629.43	0.10927	0.00027
629.48	0.11105	0.00034
629.52	0.1111	0.00051
629.56	0.10825	0.00036
629.6	0.10484	0.00041
629.64	0.10738	0.00047
629.68	0.10957	0.0004
629.72	0.11034	0.00038
629.76	0.1084	0.00047
629.8	0.10861	0.00044
629.84	0.10438	0.00057
629.88	0.10637	0.00034
629.92	0.10453	0.00038
629.95	0.1027	0.00038
630.0	0.10275	0.00056
630.04	0.09741	0.0005
630.07	0.0971	0.00055
630.12	0.1	0.00042
630.16	0.10005	0.00051
630.19	0.10458	0.00036
630.24	0.09807	0.00036
630.28	0.10265	0.00036
630.31	0.097	0.00039
630.36	0.09863	0.00044
630.4	0.09868	0.00051
630.43	0.09893	0.00044
630.48	0.10183	0.00041
630.52	0.09797	0.00027
630.56	0.09537	0.0005
630.6	0.09909	0.00053
630.64	0.09807	0.00048
630.68	0.09797	0.00027
630.72	0.11136	0.0005
630.76	0.10194	0.00033
630.8	0.09888	0.00051
630.84	0.10077	0.00025
630.88	0.09883	0.00025
630.92	0.09695	0.00048
630.95	0.10194	0.00033
631.0	0.10219	0.00031
631.04	0.09802	0.00046
631.07	0.09822	0.00052
631.12	0.09629	0.00025
631.16	0.09791	0.00031
631.19	0.09598	0.00039
631.24	0.09797	0.00015
631.28	0.09807	0.00015
631.31	0.1028	0.00047
631.36	0.10077	0.00041
631.4	0.09812	0.00055
631.43	0.10163	0.00053
631.48	0.09924	0.00041
631.52	0.09547	0.00032
631.56	0.09496	0.00051
631.6	0.09593	0.00053
631.64	0.09898	0.00042
631.68	0.1028	0.00025
631.72	0.09333	0.00031
631.76	0.10209	0.00039
631.8	0.10402	0.00038
631.84	0.10265	0.00027
631.88	0.1029	0.00061
631.92	0.10448	0.00046
631.95	0.11227	0.00023
632.0	0.1083	0.00044
632.04	0.0998	0.00047
632.07	0.11227	0.00051
632.12	0.1084	0.00034
632.16	0.10861	0.00031
632.19	0.10474	0.00031
632.24	0.11008	0.00046
632.28	0.10647	0.00041
632.31	0.11879	0.00031
632.36	0.11095	0.00034
632.4	0.11105	0.00041
632.43	0.1111	0.00046
632.48	0.11186	0.00059
632.52	0.11385	0.00036
632.56	0.11385	0.00042
632.6	0.11762	0.00057
632.64	0.11207	0.00041
632.68	0.11614	0.00034
632.72	0.11813	0.00047
632.76	0.11782	0.00042
632.8	0.11202	0.00034
632.84	0.11976	0.00033
632.88	0.11298	0.00041
632.92	0.11502	0.00034
632.95	0.11981	0.00038
633.0	0.11991	0.00051
633.04	0.11991	0.00051
633.07	0.11792	0.00036
633.12	0.11996	0.00042
633.16	0.11594	0.00071
633.19	0.11227	0.00032
633.24	0.11436	0.00036
633.28	0.11405	0.00047
633.31	0.11421	0.0002
633.36	0.114	0.00057
633.4	0.11309	0.00025
633.43	0.11024	0.00051
633.48	0.11293	0.00046
633.52	0.1108	0.00042
633.56	0.114	0.00034
633.6	0.10906	0.00033
633.64	0.10927	0.00027
633.68	0.10937	0.00046
633.72	0.10759	0.00031
633.76	0.11115	0.0005
633.8	0.11003	0.00047
633.84	0.10657	0.0005
633.88	0.10667	0.0006
633.92	0.10637	0.00025
633.95	0.1027	0.00031
634.0	0.10922	0.00032
634.04	0.1027	0.00031
634.07	0.09308	0.00051
634.12	0.10214	0.00042
634.16	0.10357	0.00042
634.19	0.10097	0.00031
634.24	0.10102	0.00053
634.28	0.0943	0.0004
634.31	0.10102	0.00048
634.36	0.0941	0.00033
634.4	0.09511	0.0004
634.43	0.10158	0.00064
634.48	0.09985	0.00041
634.52	0.10005	0.00032
634.56	0.0997	0.00023
634.6	0.09445	0.00051
634.64	0.09425	0.00034
634.68	0.09705	0.00027
634.72	0.09608	0.0005
634.76	0.09903	0.00046
634.8	0.09817	0.00033
634.84	0.09797	0.00036
634.88	0.0972	0.00041
634.92	0.09328	0.00033
634.95	0.0943	0.00033
635.0	0.10555	0.00038
635.04	0.09898	0.00048
635.07	0.10168	0.00044
635.12	0.10153	0.00042
635.16	0.09629	0.00047
635.19	0.09786	0.00033
635.24	0.09629	0.00047
635.28	0.10189	0.00047
635.31	0.10077	0.00041
635.36	0.09542	0.00048
635.4	0.09537	0.00044
635.43	0.10372	0.0005
635.48	0.09527	0.00041
635.52	0.09511	0.00051
635.56	0.09878	0.00034
635.6	0.09613	0.00051
635.64	0.09496	0.00051
635.68	0.1	0.00048
635.72	0.1	0.00042
635.76	0.0999	0.0006
635.8	0.10199	0.00044
635.84	0.09527	0.00047
635.88	0.10173	0.0004
635.92	0.09435	0.00038
635.95	0.1027	0.00031
636.0	0.1028	0.00047
636.04	0.10163	0.00036
636.07	0.10168	0.00031
636.12	0.09914	0.00044
636.16	0.09893	0.00059
636.19	0.10346	0.00051
636.24	0.09705	0.00048
636.28	0.09695	0.00036
636.31	0.09807	0.00058
636.36	0.10285	0.00034
636.4	0.10178	0.00034
636.43	0.09608	0.00038
636.48	0.09705	0.00042
636.52	0.10265	0.00015
636.56	0.0971	0.0005
636.6	0.09705	0.00015
636.64	0.09909	0.00048
636.68	0.09863	0.0005
636.72	0.10077	0.00025
636.76	0.09517	0.00061
636.8	0.0913	0.00038
636.84	0.09328	0.00033
636.88	0.09328	0.0004
636.92	0.10845	0.00025
636.95	0.09888	0.00068
637.0	0.09511	0.0004
637.04	0.10239	0.00025
637.07	0.09196	0.00036
637.12	0.09868	0.00046
637.16	0.09247	0.00027
637.19	0.09221	0.00025
637.24	0.10173	0.00046
637.28	0.09812	0.00075
637.31	0.09914	0.00055
637.36	0.10021	0.00033
637.4	0.09914	0.00031
637.43	0.09695	0.00048
637.48	0.09705	0.00048
637.52	0.09807	0.00048
637.56	0.09603	0.00058
637.6	0.10285	0.00041
637.64	0.09817	0.00046
637.68	0.10178	0.00047
637.72	0.10183	0.00041
637.76	0.10199	0.0005
637.8	0.10015	0.00031
637.84	0.09715	0.00056
637.88	0.10092	0.00033
637.92	0.09909	0.00027
637.95	0.10382	0.00034
638.0	0.097	0.00051
638.04	0.10077	0.00025
638.07	0.10092	0.00033
638.12	0.10071	0.00033
638.16	0.10382	0.00034
638.19	0.10367	0.00036
638.24	0.09705	0.00048
638.28	0.1001	0.00036
638.31	0.09735	0.0004
638.36	0.09695	0.00042
638.4	0.09914	0.00031
638.43	0.10071	0.00023
638.48	0.09603	0.00027
638.52	0.1027	0.0005
638.56	0.10255	0.00027
638.6	0.09802	0.00032
638.64	0.0971	0.00038
638.68	0.09695	0.00036
638.72	0.10082	0.00025
638.76	0.10754	0.00046
638.8	0.09995	0.00031
638.84	0.10642	0.00052
638.88	0.097	0.00023
638.92	0.10102	0.00053
638.95	0.10082	0.00034
639.0	0.10092	0.00046
639.04	0.1027	0.00031
639.07	0.10204	0.00042
639.12	0.10632	0.00033
639.16	0.10229	0.00034
639.19	0.09781	0.00047
639.24	0.09812	0.00031
639.28	0.09791	0.00044
639.31	0.10295	0.00051
639.36	0.1057	0.00036
639.4	0.0998	0.00025
639.43	0.09618	0.00041
639.48	0.10061	0.00027
639.52	0.10458	0.00036
639.56	0.10474	0.00059
639.6	0.10346	0.00056
639.64	0.1	0.00042
639.68	0.10189	0.00025
639.72	0.10275	0.00033
639.76	0.10357	0.00042
639.8	0.0973	0.00052
639.84	0.0971	0.00055
639.88	0.10382	0.00041
639.92	0.10458	0.00036
639.95	0.09995	0.00044
640.0	0.10275	0.00046
640.04	0.1028	0.00047
640.07	0.10805	0.00023
640.12	0.10825	0.00036
640.16	0.09685	0.00033
640.19	0.09893	0.00038
640.24	0.10545	0.00041
640.28	0.09567	0.00041
640.31	0.10005	0.00032
640.36	0.0998	0.00034
