Waveleght	Intensity	Error
625.43	0.10392	0.00034
625.48	0.09506	0.00055
625.52	0.10173	0.0006
625.56	0.10183	0.00052
625.6	0.10525	0.00038
625.64	0.1	0.00036
625.68	0.10453	0.00031
625.72	0.10443	0.00041
625.76	0.09802	0.0006
625.8	0.1084	0.00047
625.84	0.0942	0.00041
625.88	0.10469	0.00027
625.92	0.10189	0.00047
625.95	0.10464	0.00032
626.0	0.10469	0.00036
626.04	0.10637	0.00025
626.07	0.10362	0.00051
626.12	0.10265	0.00042
626.16	0.0999	0.0004
626.19	0.10275	0.0006
626.24	0.10458	0.00027
626.28	0.10479	0.00051
626.31	0.1001	0.00036
626.36	0.10372	0.00031
626.4	0.1084	0.00034
626.43	0.09903	0.00046
626.48	0.10183	0.00047
626.52	0.11492	0.00044
626.56	0.10632	0.00033
626.6	0.10632	0.00051
626.64	0.10642	0.00025
626.68	0.10346	0.00051
626.72	0.10377	0.00033
626.76	0.1025	0.0005
626.8	0.10285	0.00041
626.84	0.10535	0.00047
626.88	0.10525	0.00044
626.92	0.10183	0.00065
626.95	0.10372	0.00031
627.0	0.10392	0.00034
627.04	0.10071	0.00033
627.07	0.10922	0.00039
627.12	0.1056	0.00062
627.16	0.10173	0.00056
627.19	0.10194	0.0006
627.24	0.10896	0.00025
627.28	0.10738	0.00047
627.31	0.1056	0.00036
627.36	0.10912	0.00055
627.4	0.10616	0.00032
627.43	0.10209	0.00046
627.48	0.10189	0.00041
627.52	0.10774	0.00036
627.56	0.1055	0.00033
627.6	0.10947	0.00025
627.64	0.10178	0.00047
627.68	0.10458	0.00036
627.72	0.10825	0.00015
627.76	0.10835	0.00033
627.8	0.10738	0.00034
627.84	0.10453	0.0005
627.88	0.10657	0.00044
627.92	0.10856	0.0004
627.95	0.11136	0.00044
628.0	0.10372	0.00038
628.04	0.10744	0.00041
628.07	0.10749	0.00047
628.12	0.10906	0.00065
628.16	0.1082	0.0
628.19	0.11115	0.00038
628.24	0.11487	0.00036
628.28	0.11085	0.00038
628.31	0.11115	0.00038
628.36	0.11105	0.00047
628.4	0.11777	0.00038
628.43	0.11024	0.00039
628.48	0.10942	0.00052
628.52	0.1113	0.00036
628.56	0.11691	0.00048
628.6	0.11273	0.00027
628.64	0.11319	0.00038
628.68	0.11008	0.0004
628.72	0.12256	0.00038
628.76	0.11222	0.00027
628.8	0.11293	0.00046
628.84	0.12098	0.00036
628.88	0.12139	0.00036
628.92	0.11207	0.00025
628.95	0.11197	0.00025
629.0	0.11696	0.00031
629.04	0.11685	0.00039
629.07	0.11889	0.00046
629.12	0.1195	0.00055
629.16	0.12154	0.0002
629.19	0.10932	0.0005
629.24	0.10937	0.00033
629.28	0.11864	0.00034
629.31	0.11757	0.00034
629.36	0.11558	0.00047
629.4	0.11039	0.0004
629.43	0.11497	0.00046
629.48	0.11309	0.00041
629.52	0.11309	0.00047
629.56	0.11324	0.00042
629.6	0.11125	0.00032
629.64	0.11675	0.00038
629.68	0.10932	0.00044
629.72	0.10927	0.00053
629.76	0.1109	0.00046
629.8	0.10744	0.00041
629.84	0.10759	0.00044
629.88	0.10632	0.0004
629.92	0.10906	0.00046
629.95	0.11095	0.00052
630.0	0.10576	0.00038
630.04	0.10657	0.00038
630.07	0.10372	0.00031
630.12	0.10377	0.00046
630.16	0.10245	0.0004
630.19	0.1055	0.00056
630.24	0.1028	0.00025
630.28	0.0999	0.00033
630.31	0.10647	0.00041
630.36	0.1	0.00036
630.4	0.09898	0.00048
630.43	0.09909	0.00036
630.48	0.09802	0.00039
630.52	0.10178	0.00025
630.56	0.09995	0.00044
630.6	0.10061	0.00042
630.64	0.09791	0.00031
630.68	0.10616	0.00032
630.72	0.10647	0.00041
630.76	0.10377	0.0004
630.8	0.09883	0.00047
630.84	0.10082	0.00025
630.88	0.09985	0.00025
630.92	0.10474	0.00055
630.95	0.10097	0.0005
631.0	0.1	0.00042
631.04	0.09975	0.00057
631.07	0.10632	0.0004
631.12	0.10005	0.00039
631.16	0.09506	0.00031
631.19	0.1026	0.00032
631.24	0.10178	0.00047
631.28	0.11018	0.00042
631.31	0.11003	0.00047
631.36	0.09939	0.00046
631.4	0.10194	0.00046
631.43	0.1	0.00036
631.48	0.10555	0.00031
631.52	0.09812	0.0002
631.56	0.10647	0.00041
631.6	0.10626	0.0002
631.64	0.09338	0.00027
631.68	0.10759	0.0005
631.72	0.10662	0.00036
631.76	0.1025	0.00031
631.8	0.10728	0.00044
631.84	0.09888	0.00033
631.88	0.10545	0.00047
631.92	0.10555	0.00031
631.95	0.10759	0.0005
632.0	0.11309	0.00047
632.04	0.10652	0.00033
632.07	0.10733	0.0004
632.12	0.10952	0.00047
632.16	0.11029	0.00036
632.19	0.11029	0.00036
632.24	0.1085	0.00047
632.28	0.11487	0.00027
632.31	0.11691	0.00036
632.36	0.11288	0.00044
632.4	0.11309	0.00025
632.43	0.12154	0.00031
632.48	0.12133	0.00038
632.52	0.12072	0.00041
632.56	0.1164	0.00042
632.6	0.11879	0.00038
632.64	0.12322	0.00052
632.68	0.11614	0.00041
632.72	0.12057	0.00046
632.76	0.11288	0.00038
632.8	0.11304	0.00052
632.84	0.12286	0.00031
632.88	0.12072	0.00034
632.92	0.12083	0.00044
632.95	0.13004	0.00036
633.0	0.11981	0.00038
633.04	0.12149	0.00036
633.07	0.12169	0.00041
633.12	0.12352	0.00027
633.16	0.11894	0.00042
633.19	0.12062	0.00047
633.24	0.1167	0.00033
633.28	0.11772	0.00046
633.31	0.12149	0.00027
633.36	0.12057	0.00033
633.4	0.12072	0.00041
633.43	0.11767	0.00047
633.48	0.11095	0.00041
633.52	0.1113	0.00062
633.56	0.11339	0.00044
633.6	0.11416	0.0006
633.64	0.11436	0.00027
633.68	0.11395	0.00051
633.72	0.10657	0.00044
633.76	0.11217	0.00038
633.8	0.1054	0.00041
633.84	0.10443	0.00025
633.88	0.10464	0.00032
633.92	0.10443	0.00047
633.95	0.10484	0.00041
634.0	0.10443	0.00025
634.04	0.1025	0.00031
634.07	0.10637	0.00025
634.12	0.1055	0.00051
634.16	0.09898	0.00042
634.19	0.09807	0.00015
634.24	0.10275	0.00033
634.28	0.1026	0.00046
634.31	0.1025	0.00031
634.36	0.09985	0.00052
634.4	0.10428	0.0004
634.43	0.10382	0.00034
634.48	0.09903	0.00056
634.52	0.10265	0.00048
634.56	0.1025	0.00031
634.6	0.10183	0.00041
634.64	0.09705	0.00036
634.68	0.09909	0.00042
634.72	0.09898	0.00058
634.76	0.10484	0.00041
634.8	0.10092	0.0004
634.84	0.10087	0.00052
634.88	0.10005	0.00023
634.92	0.09496	0.00046
634.95	0.10474	0.0005
635.0	0.10255	0.00048
635.04	0.09898	0.00042
635.07	0.10082	0.00041
635.12	0.09995	0.00031
635.16	0.0998	0.00025
635.19	0.10927	0.00058
635.24	0.10382	0.00047
635.28	0.10458	0.00042
635.31	0.10097	0.00064
635.36	0.10555	0.0005
635.4	0.0999	0.00046
635.43	0.09995	0.00038
635.48	0.09685	0.00051
635.52	0.10545	0.00061
635.56	0.10005	0.00032
635.6	0.1029	0.00041
635.64	0.10194	0.00051
635.68	0.09888	0.00023
635.72	0.10178	0.0008
635.76	0.10178	0.00047
635.8	0.09898	0.00027
635.84	0.10275	0.0004
635.88	0.09405	0.00044
635.92	0.10652	0.00033
635.95	0.09674	0.00052
636.0	0.0972	0.00047
636.04	0.0971	0.0005
636.07	0.10301	0.00038
636.12	0.09985	0.00041
636.16	0.10382	0.00052
636.19	0.10077	0.00041
636.24	0.1027	0.00031
636.28	0.09629	0.00047
636.31	0.09583	0.00033
636.36	0.1026	0.00046
636.4	0.09995	0.0005
636.43	0.1027	0.00044
636.48	0.10443	0.00041
636.52	0.1026	0.00039
636.56	0.1026	0.00039
636.6	0.10209	0.00046
636.64	0.10224	0.0004
636.68	0.10453	0.00044
636.72	0.1	0.00042
636.76	0.09791	0.0002
636.8	0.09705	0.00042
636.84	0.10372	0.00031
636.88	0.10153	0.00036
636.92	0.10183	0.00034
636.95	0.1083	0.0002
637.0	0.10362	0.00039
637.04	0.09812	0.00044
637.07	0.10545	0.00041
637.12	0.09634	0.00023
637.16	0.10133	0.00057
637.19	0.10021	0.00023
637.24	0.09995	0.00044
637.28	0.09705	0.00058
637.31	0.10545	0.00047
637.36	0.09985	0.00041
637.4	0.10082	0.00025
637.43	0.09863	0.00038
637.48	0.10362	0.00051
637.52	0.10382	0.00034
637.56	0.09995	0.00044
637.6	0.097	0.00039
637.64	0.10071	0.00046
637.68	0.10005	0.00032
637.72	0.09685	0.00046
637.76	0.10352	0.00038
637.8	0.10357	0.00053
637.84	0.10199	0.00044
637.88	0.10071	0.00051
637.92	0.10545	0.00047
637.95	0.10158	0.00046
638.0	0.09802	0.00032
638.04	0.09868	0.0006
638.07	0.09781	0.00034
638.12	0.09781	0.00052
638.16	0.10005	0.00032
638.19	0.09435	0.00038
638.24	0.10357	0.00042
638.28	0.10397	0.00033
638.31	0.0999	0.00051
638.36	0.10479	0.0006
638.4	0.10464	0.00039
638.43	0.1054	0.00047
638.48	0.1028	0.00047
638.52	0.10932	0.0005
638.56	0.0999	0.00023
638.6	0.09598	0.00056
638.64	0.0998	0.00034
638.68	0.1	0.00036
638.72	0.10458	0.00036
638.76	0.10087	0.00047
638.8	0.09898	0.00042
638.84	0.10474	0.0005
638.88	0.1026	0.00039
638.92	0.10372	0.00031
638.95	0.10367	0.00036
639.0	0.10362	0.00023
639.04	0.10392	0.00025
639.07	0.10173	0.00056
639.12	0.0997	0.00033
639.16	0.10652	0.00046
639.19	0.09985	0.00025
639.24	0.10367	0.00036
639.28	0.10362	0.00046
639.31	0.1027	0.00038
639.36	0.10173	0.00051
639.4	0.10372	0.00038
639.43	0.09812	0.00044
639.48	0.09873	0.00034
639.52	0.10199	0.00031
639.56	0.10474	0.00038
639.6	0.10438	0.00034
639.64	0.10387	0.00025
639.68	0.10453	0.0002
639.72	0.10448	0.00033
639.76	0.10448	0.00033
639.8	0.10667	0.00039
639.84	0.1028	0.00041
639.88	0.10301	0.00031
639.92	0.10173	0.00051
639.95	0.10275	0.00046
640.0	0.10362	0.00051
640.04	0.09985	0.00047
640.07	0.10082	0.00025
640.12	0.10484	0.00034
640.16	0.10453	0.00031
640.19	0.09995	0.0005
640.24	0.10285	0.00041
640.28	0.10565	0.00046
640.31	0.09995	0.00031
640.36	0.10484	0.00034
640.4	0.10581	0.0004
640.43	0.10484	0.00034
640.48	0.10458	0.00027
640.52	0.10357	0.00027
640.56	0.09883	0.00052
640.6	0.10565	0.00039
640.64	0.10825	0.00042
640.68	0.11105	0.00052
640.72	0.10448	0.00023
640.76	0.10479	0.00023
640.8	0.09812	0.00044
640.84	0.10723	0.00042
640.88	0.097	0.00046
640.92	0.10265	0.00027
640.95	0.10295	0.00033
641.0	0.10357	0.00042
641.04	0.10387	0.00041
641.07	0.10341	0.00047
641.12	0.09914	0.00055
641.16	0.10632	0.00056
641.19	0.09817	0.00051
641.24	0.10856	0.00051
641.28	0.10474	0.00038
641.31	0.10835	0.00033
641.36	0.10835	0.00033
641.4	0.10367	0.00036
641.43	0.10662	0.00048
641.48	0.1055	0.00046
641.52	0.1029	0.00061
641.56	0.10443	0.00041
641.6	0.10835	0.00033
641.64	0.10845	0.00047
641.68	0.10637	0.00025
641.72	0.10637	0.00025
641.76	0.10576	0.00038
641.8	0.1084	0.00025
641.84	0.10535	0.00034
641.88	0.10555	0.0005
641.92	0.10382	0.00034
641.95	0.10362	0.00064
642.0	0.10102	0.00027
642.04	0.10657	0.00038
642.07	0.10744	0.00052
642.12	0.1083	0.00055
642.16	0.11512	0.00061
642.19	0.10275	0.00033
642.24	0.1028	0.00041
642.28	0.11013	0.00044
642.31	0.11227	0.00039
642.36	0.11614	0.00034
642.4	0.10637	0.00034
642.43	0.11298	0.00047
642.48	0.12154	0.00038
642.52	0.12174	0.00057
642.56	0.11497	0.00046
642.6	0.11981	0.0005
642.64	0.11385	0.00036
642.68	0.12627	0.00047
642.72	0.1331	0.00027
642.76	0.13294	0.00041
642.8	0.13473	0.00048
642.84	0.13483	0.0004
642.88	0.13951	0.00034
642.92	0.14328	0.00048
642.95	0.14812	0.00041
643.0	0.14618	0.00041
643.04	0.16217	0.00039
643.07	0.16609	0.00046
643.12	0.16583	0.00031
643.16	0.17062	0.00047
643.19	0.18218	0.00033
643.24	0.18549	0.00031
643.28	0.19883	0.00056
643.31	0.19918	0.00033
643.36	0.18961	0.00036
643.4	0.20845	0.00027
643.43	0.20824	0.00025
643.48	0.21491	0.00047
643.52	0.22031	0.00031
643.56	0.21761	0.00036
643.6	0.225	0.00034
643.64	0.21853	0.00046
643.68	0.22337	0.00059
643.72	0.22301	0.00047
643.76	0.22046	0.00041
643.8	0.22433	0.00048
643.84	0.22067	0.00036
643.88	0.22622	0.0005
643.92	0.2279	0.00036
643.95	0.21033	0.00034
644.0	0.21023	0.00025
644.04	0.2196	0.00038
644.07	0.20916	0.0004
644.12	0.20718	0.00034
644.16	0.19124	0.00036
644.19	0.19241	0.00052
644.24	0.17332	0.00027
644.28	0.17118	0.0004
644.31	0.17154	0.00034
644.36	0.15733	0.00025
644.4	0.16314	0.00058
644.43	0.14705	0.00033
644.48	0.15092	0.00042
644.52	0.13834	0.0005
644.56	0.13773	0.00046
644.6	0.13742	0.00041
644.64	0.13182	0.00041
644.68	0.12912	0.00036
644.72	0.12337	0.00031
644.76	0.12154	0.00038
644.8	0.11492	0.00055
644.84	0.11976	0.00046
644.88	0.11991	0.00039
644.92	0.10474	0.00044
644.95	0.11426	0.00036
645.0	0.11314	0.0004
645.04	0.10825	0.00042
645.07	0.11125	0.00039
645.12	0.10255	0.00048
645.16	0.10922	0.00046
645.19	0.10912	0.00068
645.24	0.10637	0.00034
645.28	0.1082	0.00051
645.31	0.10922	0.00032
645.36	0.10845	0.00025
645.4	0.10835	0.0004
645.43	0.1056	0.00048
645.48	0.1056	0.00042
645.52	0.11024	0.0006
645.56	0.10367	0.00042
645.6	0.11197	0.00057
645.64	0.10046	0.00055
645.68	0.11207	0.00025
645.72	0.10749	0.00047
645.76	0.10194	0.00033
645.8	0.10163	0.00048
645.84	0.1082	0.00032
645.88	0.11405	0.00034
645.92	0.1084	0.00047
645.95	0.10555	0.0005
646.0	0.10937	0.0004
646.04	0.11309	0.00047
646.07	0.11314	0.00033
646.12	0.10565	0.00039
646.16	0.10453	0.00044
646.19	0.10906	0.00056
646.24	0.10642	0.00034
646.28	0.1	0.00048
646.31	0.10362	0.00032
646.36	0.10336	0.00047
646.4	0.10815	0.00053
646.43	0.10942	0.00057
646.48	0.1027	0.0002
646.52	0.10922	0.00039
646.56	0.10733	0.00033
646.6	0.10922	0.00056
646.64	0.10464	0.00039
646.68	0.10443	0.00025
646.72	0.10835	0.00033
646.76	0.10448	0.00033
646.8	0.1113	0.00036
646.84	0.10458	0.00036
646.88	0.10754	0.0004
646.92	0.10382	0.00061
646.95	0.10372	0.00059
647.0	0.10937	0.0004
647.04	0.11029	0.00048
647.07	0.10448	0.00033
647.12	0.10927	0.00048
647.16	0.11426	0.00015
647.19	0.11614	0.00025
647.24	0.11589	0.00036
647.28	0.11971	0.00047
647.31	0.12067	0.00034
647.36	0.11293	0.0004
647.4	0.12047	0.00058
647.43	0.11976	0.00023
647.48	0.12347	0.00051
647.52	0.12643	0.00031
647.56	0.12622	0.00025
647.6	0.13238	0.00041
647.64	0.12923	0.00033
647.68	0.13366	0.00032
647.72	0.13936	0.0005
647.76	0.13569	0.00046
647.8	0.14226	0.00042
647.84	0.14216	0.00046
647.88	0.14414	0.00047
647.92	0.13951	0.00041
647.95	0.14048	0.00041
648.0	0.14048	0.00025
648.04	0.14216	0.00088
648.07	0.14908	0.00033
648.12	0.15097	0.00032
648.16	0.15112	0.0004
648.19	0.14109	0.00025
648.24	0.14496	0.00031
648.28	0.14333	0.00032
648.31	0.13366	0.00039
648.36	0.14613	0.00025
648.4	0.14043	0.00046
648.43	0.14053	0.00025
648.48	0.13763	0.0002
648.52	0.13585	0.0004
648.56	0.13753	0.00041
648.6	0.12933	0.00047
648.64	0.13467	0.00032
648.68	0.12846	0.00038
648.72	0.12826	0.00041
648.76	0.12627	0.00047
648.8	0.12342	0.00053
648.84	0.12149	0.00048
648.88	0.11411	0.00061
648.92	0.11701	0.00023
648.95	0.11421	0.00038
649.0	0.1083	0.00038
649.04	0.1085	0.00047
649.07	0.10749	0.00034
649.12	0.10484	0.00034
649.16	0.10947	0.00034
649.19	0.10901	0.00041
649.24	0.1055	0.0004
649.28	0.10657	0.00038
649.31	0.10642	0.00047
649.36	0.10657	0.0005
649.4	0.1083	0.0005
649.43	0.10301	0.00038
649.48	0.10927	0.00036
649.52	0.11044	0.00025
649.56	0.10382	0.00041
649.6	0.10759	0.00044
649.64	0.10744	0.00047
649.68	0.10744	0.00047
649.72	0.1054	0.00034
649.76	0.10148	0.00044
649.8	0.10458	0.00048
649.84	0.1056	0.00042
649.88	0.10621	0.00027
649.92	0.10662	0.00036
649.95	0.10912	0.00044
650.0	0.10469	0.00036
650.04	0.10637	0.00034
650.07	0.10652	0.0004
650.12	0.10845	0.00047
650.16	0.10733	0.00056
650.19	0.10744	0.00061
650.24	0.10637	0.00025
650.28	0.10367	0.00048
650.31	0.10092	0.0004
650.36	0.10565	0.00051
650.4	0.10372	0.0005
650.43	0.09786	0.00033
650.48	0.0969	0.0002
650.52	0.09715	0.00056
650.56	0.09725	0.00041
650.6	0.10474	0.00031
650.64	0.10173	0.00051
650.68	0.10392	0.00034
650.72	0.09802	0.00032
650.76	0.1027	0.00059
650.8	0.10255	0.00036
650.84	0.09705	0.00036
650.88	0.10891	0.00041
650.92	0.10377	0.00046
650.95	0.10448	0.0004
651.0	0.10367	0.00053
651.04	0.10077	0.00041
651.07	0.10092	0.00033
651.12	0.10295	0.00056
651.16	0.1027	0.0002
651.19	0.10285	0.00034
651.24	0.10087	0.00034
651.28	0.10458	0.00027
651.31	0.10744	0.00025
651.36	0.09893	0.00031
651.4	0.09893	0.00044
651.43	0.10458	0.00042
651.48	0.09893	0.00059
651.52	0.10102	0.00015
651.56	0.10367	0.00053
651.6	0.1052	0.00036
651.64	0.10565	0.00046
651.68	0.1057	0.00048
651.72	0.10071	0.00046
651.76	0.09903	0.00046
651.8	0.10438	0.00034
651.84	0.09903	0.00056
651.88	0.09786	0.00046
651.92	0.10163	0.00042
651.95	0.09893	0.0005
652.0	0.09878	0.00047
652.04	0.09618	0.00041
652.07	0.10265	0.00042
652.12	0.09995	0.00044
652.16	0.09766	0.00072
652.19	0.10469	0.00036
652.24	0.09995	0.00038
652.28	0.1001	0.00027
652.31	0.10163	0.00048
652.36	0.10927	0.00027
652.4	0.10168	0.00031
652.43	0.10632	0.00033
652.48	0.09791	0.00044
652.52	0.1	0.00036
652.56	0.09985	0.00047
652.6	0.10255	0.00036
652.64	0.10448	0.0004
652.68	0.10728	0.0005
652.72	0.10077	0.00034
652.76	0.10082	0.00025
652.8	0.09786	0.00033
652.84	0.1053	0.0004
652.88	0.10576	0.0005
652.92	0.10158	0.00039
652.95	0.09878	0.00041
653.0	0.1057	0.00062
653.04	0.1028	0.00047
653.07	0.10183	0.00052
653.12	0.1028	0.00052
653.16	0.10295	0.00051
653.19	0.10275	0.00033
653.24	0.09797	0.00036
653.28	0.10754	0.00065
653.31	0.10932	0.00031
653.36	0.10718	0.00051
653.4	0.10453	0.00031
653.43	0.10474	0.00031
653.48	0.1028	0.00041
653.52	0.0999	0.0004
653.56	0.10204	0.00048
653.6	0.1084	0.00047
653.64	0.10362	0.00023
653.68	0.10464	0.00032
653.72	0.10448	0.00033
653.76	0.10458	0.00027
653.8	0.10214	0.00042
653.84	0.10199	0.00038
653.88	0.09786	0.00051
653.92	0.10189	0.00041
653.95	0.10189	0.00065
654.0	0.09781	0.00034
654.04	0.09797	0.00015
654.07	0.10713	0.00053
654.12	0.10769	0.00032
654.16	0.10097	0.0005
654.19	0.09511	0.00056
654.24	0.10733	0.00046
654.28	0.10092	0.00046
654.31	0.09914	0.00044
654.36	0.09883	0.00034
654.4	0.1026	0.00032
654.43	0.10626	0.0005
654.48	0.10662	0.00053
654.52	0.09735	0.00051
654.56	0.0998	0.00047
654.6	0.10102	0.00053
654.64	0.10087	0.00025
654.68	0.10367	0.00036
654.72	0.09985	0.00057
654.76	0.10759	0.00044
654.8	0.09995	0.00038
654.84	0.10474	0.00031
654.88	0.1027	0.00031
654.92	0.10275	0.00046
654.95	0.10183	0.00047
655.0	0.09415	0.00025
655.04	0.09679	0.00025
655.07	0.10005	0.00039
655.12	0.09909	0.00042
655.16	0.10026	0.00041
655.19	0.09914	0.0005
655.24	0.09893	0.00031
655.28	0.10194	0.0004
655.31	0.10087	0.00041
655.36	0.10667	0.00032
655.4	0.10372	0.00044
655.43	0.10255	0.00015
655.48	0.09791	0.00031
655.52	0.09802	0.00023
655.56	0.10662	0.00062
655.6	0.10382	0.00034
655.64	0.10443	0.00034
655.68	0.10835	0.00023
655.72	0.09608	0.00038
655.76	0.10576	0.00044
655.8	0.09898	0.00036
655.84	0.09888	0.00051
655.88	0.10377	0.00033
655.92	0.10295	0.00046
655.95	0.10362	0.00039
656.0	0.0999	0.00046
656.04	0.10632	0.00051
656.07	0.10183	0.00041
656.12	0.10168	0.00038
656.16	0.0999	0.00046
656.19	0.10352	0.00068
656.24	0.09873	0.00057
656.28	0.0969	0.00044
656.31	0.10194	0.00051
656.36	0.09817	0.0004
656.4	0.09807	0.00048
656.43	0.09506	0.00044
656.48	0.10183	0.00041
656.52	0.09995	0.0002
656.56	0.1055	0.00033
656.6	0.10362	0.00023
656.64	0.10239	0.00034
656.68	0.10377	0.00023
656.72	0.10382	0.00047
656.76	0.10168	0.0005
656.8	0.10178	0.00052
656.84	0.0998	0.00041
656.88	0.09832	0.00034
656.92	0.10464	0.00032
656.95	0.0999	0.0004
657.0	0.09985	0.00034
657.04	0.10433	0.00041
657.07	0.10448	0.00046
657.12	0.10621	0.00042
657.16	0.10469	0.00027
657.19	0.10107	0.00056
657.24	0.10301	0.00038
657.28	0.10285	0.00034
657.31	0.10168	0.00031
657.36	0.10183	0.00047
657.4	0.10015	0.00038
657.43	0.10026	0.00034
657.48	0.10015	0.0002
657.52	0.10173	0.00056
657.56	0.10367	0.00058
657.6	0.10382	0.00057
657.64	0.1029	0.00025
657.68	0.10718	0.00056
657.72	0.10387	0.00041
657.76	0.1054	0.00041
657.8	0.10066	0.0002
657.84	0.10377	0.00033
657.88	0.10362	0.00046
657.92	0.10092	0.0004
657.95	0.1056	0.00042
658.0	0.10087	0.00034
658.04	0.0998	0.00041
658.07	0.10077	0.00047
658.12	0.10458	0.00048
658.16	0.10458	0.00027
658.19	0.10474	0.00044
658.24	0.10917	0.00036
658.28	0.10163	0.00042
658.31	0.09807	0.00036
658.36	0.10835	0.0004
658.4	0.1001	0.00042
658.43	0.1083	0.0005
658.48	0.1083	0.00038
658.52	0.10545	0.00047
658.56	0.09893	0.00044
658.6	0.1	0.00027
658.64	0.10443	0.00034
658.68	0.09898	0.00036
658.72	0.10097	0.00031
658.76	0.10097	0.00068
658.8	0.10479	0.00033
658.84	0.10082	0.00025
658.88	0.10178	0.00047
658.92	0.10087	0.00034
658.95	0.10845	0.00041
659.0	0.10173	0.0004
659.04	0.10514	0.00032
659.07	0.10565	0.0006
659.12	0.10082	0.00041
659.16	0.10367	0.00027
659.19	0.09893	0.00038
659.24	0.10357	0.00042
659.28	0.10285	0.00034
659.31	0.10744	0.00047
659.36	0.10749	0.00041
659.4	0.09919	0.00051
659.43	0.09883	0.00041
659.48	0.1056	0.00048
659.52	0.09919	0.00051
659.56	0.10754	0.00051
659.6	0.09893	0.00044
659.64	0.09898	0.00042
659.68	0.10082	0.00025
659.72	0.10469	0.00042
659.76	0.1082	0.0006
659.8	0.10723	0.00053
659.84	0.10194	0.00065
659.88	0.1028	0.00047
659.92	0.10453	0.00031
659.95	0.10464	0.00046
660.0	0.1057	0.00042
660.04	0.1083	0.00031
660.07	0.11207	0.00034
660.12	0.10637	0.00034
660.16	0.10657	0.00038
660.19	0.10927	0.00062
660.24	0.10912	0.00059
660.28	0.1055	0.00056
660.31	0.10097	0.00044
660.36	0.11304	0.00025
660.4	0.11192	0.00033
660.43	0.10937	0.00046
660.48	0.11782	0.00042
660.52	0.11013	0.0002
660.56	0.11044	0.00052
660.6	0.11507	0.00041
660.64	0.12169	0.00034
660.68	0.12251	0.00027
660.72	0.12225	0.00034
660.76	0.12734	0.00047
660.8	0.1252	0.00057
660.84	0.12541	0.00038
660.88	0.12251	0.00042
660.92	0.12923	0.00033
660.95	0.12729	0.00047
661.0	0.122	0.00042
661.04	0.12826	0.00047
661.07	0.12332	0.00046
661.12	0.12347	0.00039
661.16	0.12439	0.00031
661.19	0.12245	0.00032
661.24	0.12444	0.00042
661.28	0.11772	0.0004
661.31	0.12622	0.00047
661.36	0.12251	0.00027
661.4	0.12164	0.00047
661.43	0.12179	0.0004
661.48	0.11874	0.00023
661.52	0.12164	0.00034
661.56	0.12332	0.00056
661.6	0.11792	0.00036
661.64	0.11696	0.00038
661.68	0.1112	0.00042
661.72	0.1112	0.00036
661.76	0.10728	0.00038
661.8	0.10815	0.00048
661.84	0.1028	0.00025
661.88	0.10565	0.00051
661.92	0.11034	0.00044
661.95	0.10565	0.00039
662.0	0.10367	0.00036
662.04	0.10387	0.00047
662.07	0.10387	0.00025
662.12	0.10464	0.00023
662.16	0.1083	0.0005
662.19	0.0999	0.00033
662.24	0.10183	0.00025
662.28	0.1052	0.00042
662.31	0.10576	0.00038
662.36	0.1054	0.00034
662.4	0.10469	0.00036
662.43	0.10301	0.00038
662.48	0.10301	0.0005
662.52	0.1057	0.00036
662.56	0.09705	0.00048
662.6	0.09695	0.00042
662.64	0.10647	0.00047
662.68	0.1085	0.00034
662.72	0.10545	0.00047
662.76	0.0971	0.00038
662.8	0.10265	0.00036
662.84	0.10738	0.00041
662.88	0.10469	0.00042
662.92	0.10469	0.00015
662.95	0.1082	0.00056
663.0	0.10178	0.00034
663.04	0.10469	0.00036
663.07	0.10845	0.00034
663.12	0.10341	0.00047
663.16	0.10901	0.00041
663.19	0.10927	0.00036
663.24	0.10362	0.00032
663.28	0.10723	0.00053
663.31	0.11207	0.00034
663.36	0.10912	0.00044
663.4	0.10255	0.00058
663.43	0.11411	0.00047
663.48	0.11421	0.00031
663.52	0.11502	0.00057
663.56	0.11125	0.00032
663.6	0.10535	0.00041
663.64	0.10901	0.00041
663.68	0.11197	0.00052
663.72	0.1168	0.00036
663.76	0.11472	0.0005
663.8	0.11482	0.00039
663.84	0.1083	0.00038
663.88	0.11314	0.00051
663.92	0.11619	0.00033
663.95	0.11869	0.00041
664.0	0.11589	0.00053
664.04	0.12067	0.00034
664.07	0.12067	0.00041
664.12	0.11293	0.0004
664.16	0.11848	0.0005
664.19	0.11772	0.0004
664.24	0.12271	0.00041
664.28	0.11971	0.00034
664.31	0.1196	0.00047
664.36	0.12444	0.00036
664.4	0.12439	0.00031
664.43	0.12154	0.00038
664.48	0.12368	0.00025
664.52	0.1196	0.00034
664.56	0.12363	0.0004
664.6	0.12724	0.00041
664.64	0.12179	0.00051
664.68	0.12139	0.00036
664.72	0.12128	0.0004
664.76	0.12709	0.00027
664.8	0.13208	0.00048
664.84	0.12617	0.00072
664.88	0.12531	0.00041
664.92	0.13009	0.00046
664.95	0.12999	0.00038
665.0	0.13315	2.77556e-17
665.04	0.13585	0.00033
665.07	0.12739	0.00033
665.12	0.13198	0.0004
665.16	0.13859	0.0004
665.19	0.12816	0.0005
665.24	0.12439	0.00038
665.28	0.12434	0.00023
665.31	0.13569	0.00039
665.36	0.12714	0.00038
665.4	0.1308	0.00041
665.43	0.13294	0.00041
665.48	0.12923	0.0004
665.52	0.12841	0.00056
665.56	0.12816	0.00038
665.6	0.13045	0.00033
665.64	0.12831	0.00052
665.68	0.11965	0.00041
665.72	0.12057	0.00023
665.76	0.12439	0.00038
665.8	0.11874	0.00023
665.84	0.11874	0.00033
665.88	0.12067	0.00025
665.92	0.12149	0.00036
665.95	0.11589	0.00036
666.0	0.11965	0.00052
666.04	0.12271	0.00041
666.07	0.12006	0.0004
666.12	0.11411	0.00034
666.16	0.11431	0.00051
666.19	0.11711	0.00047
666.24	0.11584	0.00039
666.28	0.11115	0.00044
666.31	0.11395	0.0004
666.36	0.10906	0.00056
666.4	0.11599	0.0004
666.43	0.11579	0.00036
666.48	0.11685	0.00051
666.52	0.11212	0.0004
666.56	0.10642	0.00025
666.6	0.10672	0.00042
666.64	0.11411	0.00041
666.68	0.10845	0.00025
666.72	0.10469	0.00027
666.76	0.10453	0.00038
666.8	0.10464	0.00032
666.84	0.10458	0.00027
666.88	0.11039	0.00051
666.92	0.10733	0.0004
666.95	0.10464	0.00032
667.0	0.10565	0.00056
667.04	0.1057	0.00036
667.07	0.10372	0.0005
667.12	0.1084	0.00052
667.16	0.1082	0.00046
667.19	0.09985	0.00041
667.24	0.10189	0.00034
667.28	0.11217	0.0002
667.31	0.11217	0.00044
667.36	0.10178	0.00052
667.4	0.10448	0.00033
667.43	0.10458	0.00048
667.48	0.10372	0.00055
667.52	0.10194	0.00051
667.56	0.1113	0.00058
667.6	0.10458	0.00027
667.64	0.10469	0.00036
667.68	0.1028	0.00041
667.72	0.10535	0.00025
667.76	0.10718	0.00039
667.8	0.10443	0.00025
667.84	0.10071	0.0004
667.88	0.09583	0.0004
667.92	0.09603	0.00042
667.95	0.10199	0.00038
668.0	0.10464	0.00046
668.04	0.10275	0.0004
668.07	0.10275	0.0004
668.12	0.10102	0.00027
668.16	0.10377	0.00051
668.19	0.10397	0.0004
668.24	0.10469	0.00036
668.28	0.10657	0.0005
668.31	0.10199	0.0005
668.36	0.10357	0.00036
668.4	0.10749	0.00047
668.43	0.10469	0.00027
668.48	0.09608	0.00044
668.52	0.09608	0.00044
668.56	0.10097	0.00031
668.6	0.10932	0.00031
668.64	0.1027	0.00031
668.68	0.10082	0.00047
668.72	0.10265	0.00042
668.76	0.10474	0.0005
668.8	0.10479	0.0004
668.84	0.10168	0.0005
668.88	0.10173	0.00051
668.92	0.10825	0.00027
668.95	0.10087	0.00034
669.0	0.10051	0.00042
669.04	0.1027	0.0005
669.07	0.09695	0.00042
669.12	0.09674	0.00041
669.16	0.10652	0.00033
669.19	0.09985	0.00034
669.24	0.09618	0.00034
669.28	0.10178	0.00034
669.31	0.10474	0.00031
669.36	0.09995	0.0005
669.4	0.1	0.00053
669.43	0.10616	0.00046
669.48	0.09802	0.00039
669.52	0.09985	0.00025
669.56	0.10352	0.00038
669.6	0.10275	0.0004
669.64	0.10061	0.00036
669.68	0.10102	0.00048
669.72	0.10168	0.00038
669.76	0.10255	0.00062
669.8	0.1055	0.00051
669.84	0.09853	0.00046
669.88	0.10621	0.00042
669.92	0.10377	0.0004
669.95	0.10143	0.0004
670.0	0.10153	0.00042
670.04	0.10642	0.00034
670.07	0.10092	0.00046
670.12	0.10092	0.00033
670.16	0.10285	0.00034
670.19	0.09878	0.00041
670.24	0.1	0.00036
670.28	0.0999	0.00023
670.31	0.1057	0.00036
670.36	0.1001	0.00053
670.4	0.10637	0.00025
670.43	0.10056	0.00046
670.48	0.10362	0.00032
670.52	0.10479	0.00065
670.56	0.10357	0.00042
670.6	0.10357	0.00048
670.64	0.10464	0.00032
670.68	0.10927	0.00048
670.72	0.10647	0.00034
670.76	0.10163	0.00062
670.8	0.10199	0.00038
670.84	0.1029	0.00047
670.88	0.1027	0.00055
670.92	0.10438	0.00041
670.95	0.10733	0.00033
671.0	0.09807	0.00027
671.04	0.10443	0.00041
671.07	0.10382	0.00057
671.12	0.10367	0.00036
671.16	0.10367	0.00042
671.19	0.10372	0.00031
671.24	0.10178	0.00041
671.28	0.10474	0.00038
671.31	0.10509	0.00036
671.36	0.10189	0.00025
671.4	0.10657	0.00038
671.43	0.10275	0.00023
671.48	0.10245	0.00056
671.52	0.10102	0.00027
671.56	0.09975	0.00041
671.6	0.10082	0.00041
671.64	0.10535	0.00052
671.68	0.10183	0.00047
671.72	0.10199	0.0002
671.76	0.10178	0.00052
671.8	0.10453	0.00031
671.84	0.10738	0.00052
671.88	0.10285	0.00052
671.92	0.10453	0.00031
671.95	0.10474	0.00044
672.0	0.1029	0.00041
672.04	0.10245	0.00033
672.07	0.10087	0.00034
672.12	0.1055	0.00051
672.16	0.10489	0.00025
672.19	0.10484	0.00041
672.24	0.10077	0.00025
672.28	0.09934	0.00041
672.31	0.09903	0.00051
672.36	0.09914	0.00031
672.4	0.09608	0.0002
672.43	0.09506	0.00038
672.48	0.10275	0.00033
672.52	0.0999	0.0004
672.56	0.10545	0.00041
672.6	0.1052	0.00042
672.64	0.1057	0.00036
672.68	0.10265	0.00042
672.72	0.09893	0.00038
672.76	0.10728	0.00044
672.8	0.1027	0.00031
672.84	0.10204	0.00042
672.88	0.1	0.00036
672.92	0.10092	0.0004
672.95	0.10102	0.00027
673.0	0.10377	0.00033
673.04	0.09797	0.00042
673.07	0.0999	0.00033
673.12	0.0998	0.00034
673.16	0.1056	0.00042
673.19	0.10194	0.00046
673.24	0.10178	0.00041
673.28	0.10377	0.00051
673.31	0.10082	0.00041
673.36	0.1055	0.00046
673.4	0.10295	0.00046
673.43	0.09802	0.00046
673.48	0.10509	0.00042
673.52	0.1055	0.00046
673.56	0.10102	0.00058
673.6	0.09791	0.00038
673.64	0.1084	0.00061
673.68	0.10367	0.00053
673.72	0.09705	0.00042
673.76	0.10937	0.00065
673.8	0.10565	0.0006
673.84	0.10545	0.00047
673.88	0.10474	0.00038
673.92	0.10637	0.00041
673.95	0.09898	0.00036
674.0	0.10632	0.00033
674.04	0.09883	0.00052
674.07	0.10774	0.00036
674.12	0.10759	0.00038
674.16	0.09914	0.00055
674.19	0.10189	0.00047
674.24	0.0998	0.00034
674.28	0.09623	0.00025
674.31	0.10942	0.00047
674.36	0.10087	0.00034
674.4	0.10082	0.00034
674.43	0.10362	0.00032
674.48	0.10071	0.00033
674.52	0.09883	0.00025
674.56	0.10178	0.00057
674.6	0.10443	0.00041
674.64	0.1	0.00042
674.68	0.10545	0.00047
674.72	0.10545	0.00041
674.76	0.10173	0.00051
674.8	0.09985	0.00034
674.84	0.10189	0.00041
674.88	0.10275	0.00023
674.92	0.10275	0.0004
674.95	0.10367	0.00048
675.0	0.10341	0.00047
675.04	0.10835	0.00023
675.07	0.10148	0.00044
675.12	0.11095	0.00041
675.16	0.10051	0.00027
675.19	0.10005	0.00046
675.24	0.10087	0.00041
675.28	0.10265	0.00027
675.31	0.1026	0.00032
675.36	0.1055	0.00046
675.4	0.09873	0.00025
675.43	0.1001	0.00036
675.48	0.10484	0.00025
675.52	0.10097	0.00059
675.56	0.1028	0.00034
675.6	0.1027	0.00031
675.64	0.10178	0.00047
675.68	0.10637	0.00025
675.72	0.09511	0.00023
675.76	0.10642	0.00034
675.8	0.10087	0.00047
675.84	0.10362	0.00032
675.88	0.10392	0.00041
675.92	0.10265	0.00042
675.95	0.10489	0.00034
676.0	0.1029	0.00057
676.04	0.09781	0.00057
676.07	0.10077	0.00034
676.12	0.10367	0.00042
676.16	0.10082	0.00041
676.19	0.10097	0.0005
676.24	0.10458	0.00027
676.28	0.10015	0.0002
676.31	0.10555	0.0005
676.36	0.10382	0.00034
676.4	0.10637	0.00034
676.43	0.1056	0.00048
676.48	0.1056	0.00048
676.52	0.10458	0.00027
676.56	0.10637	0.00047
676.6	0.10077	0.00025
676.64	0.10469	0.00027
676.68	0.10723	0.00036
676.72	0.10372	0.00031
676.76	0.1029	0.00047
676.8	0.1026	0.00056
676.84	0.1055	0.0004
676.88	0.10071	0.00023
676.92	0.10377	0.00033
676.95	0.10183	0.00041
677.0	0.1026	0.00046
677.04	0.10779	0.00031
677.07	0.10738	0.00061
677.12	0.10153	0.00058
677.16	0.10545	0.00034
677.19	0.09791	0.00038
677.24	0.10733	0.0006
677.28	0.10178	0.00034
677.31	0.10077	0.00025
677.36	0.10071	0.0004
677.4	0.10168	0.00044
677.43	0.10168	0.00055
677.48	0.09909	0.00027
677.52	0.09506	0.00044
677.56	0.10392	0.00041
677.6	0.1055	0.0004
677.64	0.09623	0.00034
677.68	0.09593	0.00048
677.72	0.09898	0.00058
677.76	0.10041	0.0004
677.8	0.10285	0.00041
677.84	0.10285	0.00047
677.88	0.10285	0.00025
677.92	0.10005	0.00039
677.95	0.1	0.00042
678.0	0.10382	0.00034
678.04	0.10097	0.00031
678.07	0.09695	0.00027
678.12	0.1027	0.00044
678.16	0.10163	0.00062
678.19	0.10077	0.00025
678.24	0.10082	0.00025
678.28	0.10453	0.00044
678.31	0.10453	0.00038
678.36	0.10377	0.0004
678.4	0.10357	0.00058
678.43	0.10372	0.00044
678.48	0.10382	0.00034
678.52	0.10245	0.00033
678.56	0.1029	0.00052
678.6	0.10662	0.00027
678.64	0.10367	0.00027
678.68	0.10667	0.00046
678.72	0.10183	0.00061
678.76	0.1027	0.0005
678.8	0.10341	0.00047
678.84	0.10352	0.00044
678.88	0.10194	0.00046
678.92	0.10555	0.00031
678.95	0.10484	0.00034
679.0	0.10189	0.00034
679.04	0.1026	0.00032
679.07	0.1027	0.00031
679.12	0.1112	0.00036
679.16	0.11105	0.00034
679.19	0.10453	0.00038
679.24	0.10178	0.00047
679.28	0.10815	0.00048
679.31	0.1055	0.00046
679.36	0.10265	0.00042
679.4	0.10183	0.00052
679.43	0.10168	0.00031
679.48	0.10102	0.00036
679.52	0.10092	0.00046
679.56	0.10464	0.00039
679.6	0.10087	0.00041
679.64	0.10932	0.00038
679.68	0.10265	0.00048
679.72	0.1025	0.00044
679.76	0.10377	0.00051
679.8	0.1057	0.00036
679.84	0.1	0.00042
679.88	0.11212	0.00023
679.92	0.10367	0.00066
679.95	0.1	0.00062
680.0	0.10728	0.00059
680.04	0.10759	0.00038
680.07	0.10107	0.00023
680.12	0.10352	0.00064
680.16	0.10071	0.00033
680.19	0.10642	0.00034
680.24	0.09791	0.00044
680.28	0.10077	0.00025
680.31	0.10071	0.00033
680.36	0.10581	0.00068
680.4	0.10917	0.00027
680.43	0.09415	0.00041
680.48	0.1056	0.00053
680.52	0.10733	0.00056
680.56	0.10005	0.00032
680.6	0.09995	0.00031
680.64	0.10097	0.00031
680.68	0.10087	0.00034
680.72	0.10464	0.00051
680.76	0.10265	0.00042
680.8	0.09893	0.00044
680.84	0.10927	0.00053
680.88	0.10362	0.00039
680.92	0.10377	0.00033
680.95	0.0998	0.00047
681.0	0.10066	0.00038
681.04	0.10652	0.0004
681.07	0.09715	0.0004
681.12	0.10199	0.0005
681.16	0.10082	0.00025
681.19	0.10092	0.00051
681.24	0.0998	0.00052
681.28	0.09776	0.00041
681.31	0.10362	0.00039
681.36	0.10265	0.00036
681.4	0.09914	0.00031
681.43	0.10464	0.00039
681.48	0.10372	0.0005
681.52	0.10377	0.0004
681.56	0.10642	0.00047
681.6	0.10107	0.00039
681.64	0.10367	0.00027
681.68	0.10367	0.00048
681.72	0.10097	0.00031
681.76	0.10346	0.00023
681.8	0.10372	0.00031
681.84	0.09903	0.00051
681.88	0.1084	0.00025
681.92	0.1029	0.00041
681.95	0.10346	0.00033
682.0	0.0999	0.0006
682.04	0.10408	0.00027
682.07	0.10372	0.0005
682.12	0.10183	0.00034
682.16	0.0997	0.00046
682.19	0.09343	0.0006
682.24	0.10071	0.00023
682.28	0.10066	0.00044
682.31	0.1082	0.00046
682.36	0.10545	0.00041
682.4	0.10555	0.00038
682.43	0.1054	0.00034
682.48	0.09883	0.00047
682.52	0.09618	0.00034
682.56	0.10352	0.00031
682.6	0.10392	0.00047
682.64	0.1	0.00036
682.68	0.10005	0.00023
682.72	0.10265	0.00027
682.76	0.10168	0.00038
682.8	0.0998	0.00034
682.84	0.10601	0.00033
682.88	0.10245	0.00023
682.92	0.10173	0.00033
682.95	0.10189	0.00034
683.0	0.1028	0.00025
683.04	0.10474	0.00044
683.07	0.1084	0.00034
683.12	0.10382	0.00034
683.16	0.10285	0.00052
683.19	0.10265	0.00027
683.24	0.09695	0.00027
683.28	0.09685	0.00033
683.31	0.10387	0.00025
683.36	0.09807	0.00036
683.4	0.10265	0.00042
683.43	0.10632	0.00033
683.48	0.1001	0.00027
683.52	0.10632	0.00046
683.56	0.10632	0.00051
683.6	0.10005	0.00056
683.64	0.10275	0.00023
683.68	0.10392	0.00025
683.72	0.10469	0.00058
683.76	0.1083	0.00031
683.8	0.10387	0.00047
683.84	0.10071	0.00033
683.88	0.10071	0.00033
683.92	0.1053	0.00046
683.95	0.10265	0.00036
684.0	0.1084	0.00034
684.04	0.10372	0.00031
684.07	0.10647	0.00034
684.12	0.10265	0.00015
684.16	0.10265	0.00015
684.19	0.10346	0.00023
684.24	0.10942	0.00034
684.28	0.10565	0.00046
684.31	0.09893	0.00064
684.36	0.10728	0.00038
684.4	0.10021	0.00046
684.43	0.0999	0.00033
684.48	0.10805	0.00023
684.52	0.10464	0.00032
684.56	0.10652	0.00033
684.6	0.10642	0.00052
684.64	0.10285	0.00052
684.68	0.10382	0.00034
684.72	0.1054	0.00041
684.76	0.10525	0.0005
684.8	0.1113	0.00053
684.84	0.10749	0.00047
684.88	0.10632	0.00033
684.92	0.1084	0.00041
684.95	0.10749	0.00041
685.0	0.11018	0.00048
685.04	0.11018	0.00015
685.07	0.10632	0.0004
685.12	0.10917	0.00042
685.16	0.10901	0.00034
685.19	0.10749	0.00041
685.24	0.10835	0.00033
685.28	0.11054	0.00047
685.31	0.10744	0.00345
685.36	0.10265	0.00036
685.4	0.10749	0.00047
685.43	0.11105	0.00041
685.48	0.10738	0.00025
685.52	0.10922	0.00039
685.56	0.11696	0.00038
685.6	0.11202	0.00025
685.64	0.11212	0.00065
685.68	0.10662	0.00027
685.72	0.11319	0.00059
685.76	0.11411	0.00034
685.8	0.11309	0.00034
685.84	0.10723	0.00048
685.88	0.1084	0.00025
685.92	0.1083	0.0005
685.95	0.1111	0.00033
686.0	0.10652	0.00051
686.04	0.10825	0.00036
686.07	0.11467	0.00033
686.12	0.10708	0.00059
686.16	0.11212	0.00046
686.19	0.11125	0.00039
686.24	0.11141	0.00046
686.28	0.11212	0.00033
686.31	0.11309	0.00041
686.36	0.10458	0.00015
686.4	0.10927	0.00036
686.43	0.10901	0.00052
686.48	0.11202	0.00052
686.52	0.11212	0.0004
686.56	0.10912	0.00044
686.6	0.10912	0.00044
686.64	0.10097	0.00038
686.68	0.10637	0.00025
686.72	0.10642	0.00034
686.76	0.10754	0.0004
686.8	0.10759	0.00055
686.84	0.10749	0.00057
686.88	0.10352	0.0005
686.92	0.10275	0.0004
686.95	0.10448	0.00023
687.0	0.10362	0.00032
687.04	0.10183	0.00047
687.07	0.10703	0.00051
687.12	0.10749	0.00041
687.16	0.09781	0.00065
687.19	0.10535	0.00061
687.24	0.10657	0.0005
687.28	0.10652	0.0004
687.31	0.1055	0.0004
687.36	0.10265	0.00042
687.4	0.10265	0.00036
687.43	0.1054	0.00052
687.48	0.10087	0.00034
687.52	0.10626	0.00055
687.56	0.1027	0.0002
687.6	0.10448	0.0004
687.64	0.10637	0.00041
687.68	0.10178	0.00047
687.72	0.10183	0.00025
687.76	0.10183	0.00025
687.8	0.10097	0.00038
687.84	0.10005	0.00032
687.88	0.10189	0.00052
687.92	0.10733	0.00033
687.95	0.10092	0.00051
688.0	0.10051	0.00036
688.04	0.10199	0.00038
688.07	0.1026	0.00039
688.12	0.09883	0.00047
688.16	0.10087	0.00034
688.19	0.10957	0.00046
688.24	0.10397	0.00033
688.28	0.10392	0.00047
688.31	0.10922	0.00046
688.36	0.10657	0.00038
688.4	0.10082	0.00034
688.43	0.10341	0.00034
688.48	0.10168	0.00038
688.52	0.10703	0.00046
688.56	0.10525	0.00044
688.6	0.1055	0.00046
688.64	0.10565	0.00039
688.68	0.09919	0.00033
688.72	0.10621	0.00048
688.76	0.10677	0.00044
688.8	0.10667	0.00046
688.84	0.10382	0.00041
688.88	0.10372	0.00031
688.92	0.10372	0.00038
688.95	0.09888	0.00023
689.0	0.10616	0.00032
689.04	0.10738	0.00047
689.07	0.10489	0.00041
689.12	0.10097	0.0005
689.16	0.10066	0.00038
689.19	0.10372	0.00038
689.24	0.10102	0.00015
689.28	0.10647	0.00047
689.31	0.10402	0.0002
689.36	0.09893	0.00055
689.4	0.10255	0.00027
689.43	0.10173	0.0004
689.48	0.10189	0.00052
689.52	0.10173	0.00051
689.56	0.10295	0.00023
689.6	0.10183	0.00034
689.64	0.10352	0.00038
689.68	0.10535	0.00041
689.72	0.10652	0.00056
689.76	0.10642	0.00034
689.8	0.10906	0.00033
689.84	0.1083	0.0005
689.88	0.1056	0.00042
689.92	0.1055	0.00051
689.95	0.10178	0.00047
690.0	0.10458	0.00027
690.04	0.10642	0.00025
690.07	0.10652	0.00056
690.12	0.10825	0.00048
690.16	0.10066	0.0005
690.19	0.10652	0.00023
690.24	0.10382	0.00034
690.28	0.10632	0.0004
690.31	0.10189	0.00047
690.36	0.10194	0.00046
