Waveleght	Intensity	Error
560.64	0.10199	0.00031
560.68	0.10178	0.00041
560.72	0.10387	0.00047
560.76	0.10382	0.00041
560.80	0.10377	0.00033
560.84	0.10626	0.00031
560.88	0.10377	0.00046
560.92	0.10372	0.00038
560.96	0.10077	0.00034
561.0	0.1053	0.00033
561.04	0.09903	0.0006
561.08	0.09919	0.0006
561.12	0.10555	0.0005
561.16	0.1027	0.00031
561.2	0.10626	0.00038
561.24	0.10122	0.00033
561.28	0.10535	0.00041
561.32	0.11115	0.00038
561.36	0.1108	0.00027
561.4	0.10194	0.0004
561.44	0.10392	0.00025
561.48	0.10474	0.00038
561.52	0.09985	0.00057
561.56	0.1055	0.00046
561.6	0.10163	0.00042
561.64	0.10357	0.00036
561.68	0.10387	0.00047
561.72	0.10071	0.00023
561.76	0.09685	0.00023
561.80	0.1055	0.00033
561.84	0.10479	0.00023
561.88	0.1001	0.00036
561.92	0.10301	0.00031
561.96	0.10295	0.0004
562.0	0.10382	0.00034
562.04	0.10183	0.00034
562.08	0.10153	0.00048
562.12	0.10749	0.00057
562.16	0.10199	0.0005
562.2	0.10535	0.00041
562.24	0.10469	0.00036
562.28	0.10464	0.00039
562.32	0.10168	0.00031
562.36	0.10285	0.00047
562.4	0.10285	0.00025
562.44	0.10204	0.00042
562.48	0.10555	0.00044
562.52	0.10738	0.00061
562.56	0.10754	0.0004
562.6	0.1028	0.00041
562.64	0.1028	0.00025
562.68	0.10275	0.0006
562.72	0.10555	0.00038
562.76	0.10555	0.00044
562.80	0.10092	0.0004
562.84	0.10077	0.00025
562.88	0.10173	0.00046
562.92	0.10754	0.00065
562.96	0.10357	0.00027
563.0	0.10178	0.00052
563.04	0.10525	0.00038
563.08	0.10484	0.00034
563.12	0.09817	0.0004
563.16	0.09807	0.00027
563.2	0.09786	0.00051
563.24	0.09985	0.00041
563.28	0.10382	0.00034
563.32	0.10209	0.00032
563.36	0.10565	0.00039
563.4	0.10189	0.00034
563.44	0.10183	0.00034
563.48	0.10092	0.00051
563.52	0.1027	0.00031
563.56	0.10071	0.0004
563.6	0.10173	0.0004
563.64	0.10168	0.00031
563.68	0.09995	0.00038
563.72	0.09975	0.00041
563.76	0.1	0.00053
563.80	0.10285	0.00034
563.84	0.10077	0.00041
563.88	0.10066	0.00031
563.92	0.0998	0.00052
563.96	0.10688	0.00052
564.0	0.10173	0.00033
564.04	0.10173	0.00051
564.08	0.09893	0.00068
564.12	0.10071	0.00033
564.16	0.09995	0.00038
564.2	0.1056	0.00042
564.24	0.10555	0.00044
564.28	0.10448	0.0004
564.32	0.10474	0.0005
564.36	0.10565	0.00051
564.4	0.10275	0.0004
564.44	0.10662	0.00053
564.48	0.10845	0.00041
564.52	0.10545	0.00047
564.56	0.10194	0.00023
564.6	0.1056	0.00042
564.64	0.10545	0.00034
564.68	0.10265	0.00042
564.72	0.10377	0.00033
564.76	0.10545	0.00047
564.80	0.1084	0.00034
564.84	0.1081	0.00044
564.88	0.1056	0.00058
564.92	0.10555	0.0005
564.96	0.10845	0.00025
565.0	0.11293	0.00046
565.04	0.1113	0.00048
565.08	0.11706	0.00025
565.12	0.12062	0.00047
565.16	0.11675	0.00038
565.2	0.11691	0.00042
565.24	0.12052	0.00038
565.28	0.11991	0.00032
565.32	0.12632	0.00047
565.36	0.12602	0.00039
565.4	0.13203	0.00044
565.44	0.13014	0.00036
565.48	0.136	0.00052
565.52	0.13595	0.00041
565.56	0.13483	0.00051
565.6	0.13921	0.00036
565.64	0.14114	0.0004
565.68	0.14043	0.0004
565.72	0.13747	0.00041
565.76	0.15076	0.00034
565.80	0.15076	0.00061
565.84	0.14236	0.00042
565.88	0.13859	0.00046
565.92	0.14236	0.00036
565.96	0.14893	0.00046
566.0	0.14796	0.00036
566.04	0.15	0.00042
566.08	0.1502	0.00034
566.12	0.14501	0.00023
566.16	0.14603	0.00033
566.2	0.14435	0.00032
566.24	0.13921	0.00036
566.28	0.14445	0.0002
566.32	0.13564	0.00048
566.36	0.1359	0.00047
566.4	0.13554	0.00023
566.44	0.14211	0.00041
566.48	0.14236	0.00042
566.52	0.13666	0.00042
566.56	0.13289	0.00041
566.6	0.12994	0.0004
566.64	0.13498	0.00041
566.68	0.13483	0.0004
566.72	0.12352	0.00058
566.76	0.12627	0.00041
566.80	0.12358	0.0005
566.84	0.12612	0.00055
566.88	0.11874	0.00023
566.92	0.11874	0.00033
566.96	0.11594	0.0005
567.0	0.11599	0.0004
567.04	0.10738	0.00034
567.08	0.11421	0.00038
567.12	0.10565	0.00056
567.16	0.10744	0.00052
567.2	0.11309	0.00041
567.24	0.114	0.00034
567.28	0.11395	0.00033
567.32	0.10621	0.00036
567.36	0.10912	0.00031
567.4	0.10728	0.00055
567.44	0.10392	0.00034
567.48	0.10408	0.00036
567.52	0.10275	0.0004
567.56	0.1029	0.00047
567.6	0.10861	0.00031
567.64	0.10453	0.00031
567.68	0.10469	0.00042
567.72	0.10352	0.00044
567.76	0.10866	0.00042
567.80	0.10723	0.00048
567.84	0.10372	0.00038
567.88	0.10357	0.00036
567.92	0.10265	0.00042
567.96	0.10474	0.00031
568.0	0.10647	0.00034
568.04	0.10397	0.00056
568.08	0.10835	0.00046
568.12	0.10728	0.00038
568.16	0.10723	0.00048
568.2	0.10565	0.00056
568.24	0.10733	0.00046
568.28	0.11222	0.00036
568.32	0.1168	0.00036
568.36	0.11782	0.00042
568.4	0.12144	0.00032
568.44	0.12021	0.00211
568.48	0.11589	0.00048
568.52	0.12643	0.00044
568.56	0.11991	0.00051
568.6	0.12174	0.00034
568.64	0.1303	0.00052
568.68	0.11497	0.00051
568.72	0.12551	0.0006
568.76	0.12536	0.00046
568.80	0.12526	0.00041
568.84	0.12149	0.00036
568.88	0.13198	0.0004
568.92	0.13355	0.00055
568.96	0.13198	0.00046
569.0	0.13198	0.00046
569.04	0.13203	0.00044
569.08	0.14425	0.0005
569.12	0.1387	0.00027
569.16	0.13574	0.00048
569.2	0.13737	0.00033
569.24	0.14053	0.00041
569.28	0.14343	0.00044
569.32	0.13381	0.00056
569.36	0.13371	0.00042
569.4	0.13585	0.00065
569.44	0.13396	0.00041
569.48	0.13493	0.00034
569.52	0.13488	0.00034
569.56	0.13279	0.00033
569.6	0.12449	0.00051
569.64	0.12459	0.00031
569.68	0.13493	0.00041
569.72	0.12551	0.00051
569.76	0.12729	0.00061
569.80	0.13014	0.00042
569.84	0.11594	0.00031
569.88	0.11456	0.00034
569.92	0.11482	0.00032
569.96	0.11767	0.00052
570.0	0.11507	0.00041
570.04	0.11614	0.00052
570.08	0.11899	0.0002
570.12	0.11212	0.00033
570.16	0.10922	0.00023
570.2	0.11039	0.00033
570.24	0.11013	0.00038
570.28	0.10891	0.00041
570.32	0.10367	0.00027
570.36	0.10178	0.00047
570.4	0.10621	0.00027
570.44	0.10173	0.00051
570.48	0.10199	0.00031
570.52	0.10189	0.00034
570.56	0.1055	0.00051
570.6	0.10922	0.00056
570.64	0.10723	0.00036
570.68	0.09715	0.0004
570.72	0.10835	0.00046
570.76	0.1083	0.0005
570.80	0.09776	0.00047
570.84	0.09771	0.00041
570.88	0.10178	0.00052
570.92	0.1026	0.00039
570.96	0.10061	0.00036
571.0	0.10265	0.00048
571.04	0.10637	0.00047
571.08	0.10738	0.00065
571.12	0.10728	0.00031
571.16	0.10474	0.00031
571.2	0.10754	0.00046
571.24	0.1085	0.00034
571.28	0.10357	0.00036
571.32	0.10642	0.00025
571.36	0.10448	0.00033
571.4	0.10458	0.00027
571.44	0.10545	0.00047
571.48	0.1082	0.0006
571.52	0.1082	0.00023
571.56	0.10912	0.00031
571.6	0.10845	0.00047
571.64	0.10932	0.00055
571.68	0.11298	0.00041
571.72	0.11329	0.00051
571.76	0.11217	0.00038
571.80	0.11416	0.0004
571.84	0.11212	0.00033
571.88	0.11477	0.00048
571.92	0.11054	0.00047
571.96	0.11298	0.00057
572.0	0.11293	0.0004
572.04	0.11405	0.00034
572.08	0.11864	0.00025
572.12	0.11884	0.00036
572.16	0.11416	0.00051
572.2	0.11624	0.00044
572.24	0.11619	0.00033
572.28	0.11614	0.00041
572.32	0.11309	0.00041
572.36	0.11105	0.00034
572.4	0.11752	0.0004
572.44	0.111	0.00041
572.48	0.11034	0.00044
572.52	0.10815	0.00027
572.56	0.11288	0.00044
572.6	0.11319	0.00031
572.64	0.10642	0.00047
572.68	0.11482	0.0006
572.72	0.11034	0.00044
572.76	0.10733	0.0004
572.80	0.1083	0.00038
572.84	0.11018	0.00042
572.88	0.11029	0.00053
572.92	0.11293	0.00051
572.96	0.1112	0.00042
573.0	0.10917	0.00066
573.04	0.10443	0.00034
573.08	0.11008	0.00056
573.12	0.10469	0.00036
573.16	0.11008	0.00046
573.2	0.11018	0.00036
573.24	0.10662	0.00042
573.28	0.1112	0.00036
573.32	0.10458	0.00027
573.36	0.09715	0.00033
573.4	0.09842	0.00038
573.44	0.10275	0.00056
573.48	0.1027	0.00038
573.52	0.10005	0.00032
573.56	0.10922	0.00023
573.6	0.10178	0.00034
573.64	0.10469	0.00036
573.68	0.10021	0.00033
573.72	0.09903	0.00032
573.76	0.09893	0.0005
573.80	0.10474	0.00044
573.84	0.09898	0.00058
573.88	0.10183	0.00041
573.92	0.10723	0.00036
573.96	0.10667	0.00039
574.0	0.10474	0.00031
574.04	0.1109	0.0006
574.08	0.1108	0.00027
574.12	0.11197	0.00034
574.16	0.10733	0.0004
574.2	0.11599	0.00051
574.24	0.11227	0.00039
574.28	0.11008	0.0004
574.32	0.1168	0.00036
574.36	0.11685	0.00046
574.4	0.11232	0.00042
574.44	0.11573	0.00038
574.48	0.11624	0.00031
574.52	0.12174	0.00041
574.56	0.12627	0.00057
574.6	0.11864	0.00047
574.64	0.11864	0.00061
574.68	0.12638	0.00051
574.72	0.12444	0.00048
574.76	0.12541	0.00044
574.80	0.12892	0.0004
574.84	0.11889	0.00051
574.88	0.12963	0.00042
574.92	0.13366	0.00023
574.96	0.13391	0.00052
575.0	0.13203	0.00038
575.04	0.13299	0.00033
575.08	0.13493	0.00025
575.12	0.12821	0.00046
575.16	0.13656	0.0004
575.2	0.13294	0.00034
575.24	0.13284	0.00034
575.28	0.13488	0.00041
575.32	0.13931	0.00036
575.36	0.12734	0.00041
575.4	0.13024	0.0004
575.44	0.12821	0.0004
575.48	0.12164	0.00041
575.52	0.12923	0.0004
575.56	0.12902	0.00027
575.6	0.13483	0.0004
575.64	0.13289	0.00034
575.68	0.13305	0.00031
575.72	0.13676	0.00027
575.76	0.13498	0.00025
575.80	0.14119	0.00038
575.84	0.14145	0.00033
575.88	0.13681	0.0002
575.92	0.13753	0.00034
575.96	0.14257	0.00047
576.0	0.14694	0.00015
576.04	0.14328	0.00036
576.08	0.14603	0.00023
576.12	0.14613	0.00052
576.16	0.15102	0.00042
576.2	0.14796	0.00053
576.24	0.16319	0.00032
576.28	0.16512	0.00031
576.32	0.16125	0.00038
576.36	0.16594	0.00041
576.4	0.167	0.00047
576.44	0.16706	0.00034
576.48	0.1697	0.00038
576.52	0.17602	0.00038
576.56	0.18187	0.00033
576.6	0.18844	0.00034
576.64	0.18009	0.00044
576.68	0.17541	0.00023
576.72	0.17525	0.0004
576.76	0.17892	0.00048
576.80	0.17917	0.00041
576.84	0.17902	0.00042
576.88	0.178	0.00036
576.92	0.17525	0.00051
576.96	0.16787	0.00031
577.0	0.16945	0.00023
577.04	0.1694	0.00038
577.08	0.16395	0.00041
577.12	0.15932	0.00025
577.16	0.16308	0.00044
577.2	0.15158	0.00038
577.24	0.14974	0.00025
577.28	0.1471	0.00041
577.32	0.1471	0.00025
577.36	0.1442	0.0004
577.4	0.13966	0.00038
577.44	0.13773	0.00051
577.48	0.14043	0.00023
577.52	0.12607	0.00042
577.56	0.12719	0.00023
577.6	0.12729	0.00034
577.64	0.12541	0.00044
577.68	0.12536	0.00051
577.72	0.1167	0.00051
577.76	0.11477	0.00027
577.80	0.10922	0.00046
577.84	0.10932	0.00031
577.88	0.10372	0.00044
577.92	0.10387	0.00034
577.96	0.10097	0.0002
578.0	0.10372	0.00044
578.04	0.10336	0.00047
578.08	0.10545	0.00052
578.12	0.1083	0.00044
578.16	0.10464	0.00023
578.2	0.10464	0.00032
578.24	0.10092	0.00023
578.28	0.10458	0.00042
578.32	0.10183	0.00041
578.36	0.10942	0.00052
578.4	0.10469	0.00036
578.44	0.09985	0.00047
578.48	0.1001	0.00036
578.52	0.1057	0.00036
578.56	0.10545	0.00047
578.6	0.10285	0.00041
578.64	0.09807	0.00048
578.68	0.09802	0.00023
578.72	0.10367	0.00027
578.76	0.09868	0.0004
578.80	0.09919	0.00033
578.84	0.11018	0.00053
578.88	0.1028	0.00034
578.92	0.10626	0.00044
578.96	0.10453	0.00055
579.0	0.10392	0.00034
579.04	0.10642	0.00057
579.08	0.10642	0.00025
579.12	0.10448	0.00023
579.16	0.10285	0.00034
579.2	0.10657	0.00038
579.24	0.10372	0.0005
579.28	0.10713	0.00066
579.32	0.10077	0.00041
579.36	0.09827	0.00025
579.4	0.09812	0.00059
579.44	0.10362	0.00039
579.48	0.10199	0.00031
579.52	0.10738	0.00034
579.56	0.10657	0.00044
579.6	0.10749	0.00057
579.64	0.1081	0.00044
579.68	0.10835	0.0004
579.72	0.10285	0.00041
579.76	0.10998	0.00052
579.80	0.1055	0.00033
579.84	0.11024	0.00051
579.88	0.1112	0.00058
579.92	0.11523	0.00044
579.96	0.11502	0.00052
580.0	0.11436	0.00036
580.04	0.11304	0.00061
580.08	0.11115	0.00038
580.12	0.1111	0.0004
580.16	0.11283	0.00048
580.2	0.12057	0.00046
580.24	0.11965	0.00041
580.28	0.11981	0.00044
580.32	0.11492	0.00044
580.36	0.12164	0.00034
580.4	0.12332	0.00033
580.44	0.11874	0.00033
580.48	0.12083	0.00038
580.52	0.12067	0.00041
580.56	0.12083	0.00038
580.6	0.11563	0.00025
580.64	0.12144	0.00023
580.68	0.12536	0.00033
580.72	0.12444	0.00027
580.76	0.12164	0.00041
580.80	0.12332	0.00051
580.84	0.12352	0.00042
580.88	0.12719	0.0004
580.92	0.12459	0.00064
580.96	0.12439	0.00031
581.0	0.11894	0.00015
581.04	0.13014	0.00042
581.08	0.1251	0.00038
581.12	0.1224	0.00048
581.16	0.12251	0.00036
581.2	0.13391	0.00052
581.24	0.12989	0.00041
581.28	0.13376	0.00044
581.32	0.13926	0.00039
581.36	0.1415	0.00034
581.4	0.14145	0.00046
581.44	0.14124	0.00048
581.48	0.14063	0.0004
581.52	0.13681	0.00031
581.56	0.14353	0.00034
581.6	0.14812	0.00034
581.64	0.14964	0.00034
581.68	0.1498	0.00023
581.72	0.15244	0.00048
581.76	0.1527	0.00025
581.80	0.1585	0.00038
581.84	0.16003	0.00044
581.88	0.17062	0.00034
581.92	0.16334	0.00033
581.96	0.17154	0.00061
582.0	0.17841	0.00042
582.04	0.17821	0.00041
582.08	0.17423	0.00046
582.12	0.17719	0.00041
582.16	0.18294	0.0005
582.2	0.17327	0.00038
582.24	0.17429	0.00044
582.28	0.17815	0.00047
582.32	0.178	0.00036
582.36	0.1694	0.00038
582.4	0.17266	0.00041
582.44	0.16629	0.00036
582.48	0.1641	0.00038
582.52	0.16706	0.00041
582.56	0.15937	0.00034
582.6	0.15764	0.00048
582.64	0.15723	0.0004
582.68	0.15937	0.00025
582.72	0.15921	0.0005
582.76	0.15458	0.00042
582.80	0.15346	0.00036
582.84	0.14608	0.00041
582.88	0.14684	0.00027
582.92	0.1471	0.00052
582.96	0.1361	0.00044
583.0	0.13961	0.00046
583.04	0.1359	0.00057
583.08	0.13091	0.00034
583.12	0.13091	0.00025
583.16	0.12699	0.00015
583.2	0.12714	0.0005
583.24	0.12047	0.00042
583.28	0.11568	0.00033
583.32	0.11207	0.00025
583.36	0.11599	0.00056
583.4	0.11197	0.00041
583.44	0.10652	0.0004
583.48	0.10947	0.00047
583.52	0.10932	0.00031
583.56	0.1085	0.00041
583.6	0.10183	0.00052
583.64	0.10474	0.00038
583.68	0.10107	0.00039
583.72	0.114	0.00025
583.76	0.10927	0.00036
583.80	0.10932	0.00044
583.84	0.10642	0.00041
583.88	0.11029	0.00048
583.92	0.10458	0.00042
583.96	0.10453	0.00031
584.0	0.10479	0.00023
584.04	0.10387	0.00041
584.08	0.1026	0.00032
584.12	0.1028	0.00025
584.16	0.10555	0.00038
584.2	0.10453	0.00055
584.24	0.10652	0.00046
584.28	0.10545	0.00052
584.32	0.10448	0.00046
584.36	0.1027	0.00038
584.4	0.1028	0.00041
584.44	0.11202	0.00034
584.48	0.10285	0.00047
584.52	0.10759	0.00038
584.56	0.10774	0.00036
584.6	0.10749	0.00041
584.64	0.11044	0.00034
584.68	0.11034	0.00038
584.72	0.11691	0.00027
584.76	0.11512	0.00041
584.80	0.11334	0.00027
584.84	0.11563	0.00052
584.88	0.11497	0.00046
584.92	0.11772	0.00051
584.96	0.11869	0.00034
585.0	0.11884	0.00027
585.04	0.12159	0.0004
585.08	0.12358	0.00055
585.12	0.12449	0.00032
585.16	0.11772	0.00065
585.2	0.12612	0.00075
585.24	0.12515	0.00046
585.28	0.12536	0.00033
585.32	0.128	0.00036
585.36	0.13208	0.00027
585.4	0.1224	0.00027
585.44	0.12352	0.00053
585.48	0.13187	0.00041
585.52	0.13315	0.00032
585.56	0.13371	0.00048
585.6	0.13386	0.00052
585.64	0.13014	0.00048
585.68	0.13208	0.00048
585.72	0.13091	0.00034
585.76	0.12902	0.00027
585.80	0.12363	0.00046
585.84	0.12449	0.0
585.88	0.12434	0.0004
585.92	0.12251	0.00027
585.96	0.11874	0.00033
586.0	0.12251	0.00036
586.04	0.11685	0.00032
586.08	0.11884	0.00027
586.12	0.11314	0.00051
586.16	0.11293	0.0004
586.2	0.11772	0.0004
586.24	0.11584	0.00051
586.28	0.11879	0.00038
586.32	0.11502	0.00041
586.36	0.11976	0.00056
586.4	0.1083	0.00044
586.44	0.10718	0.0006
586.48	0.10728	0.00044
586.52	0.10835	0.00033
586.56	0.11293	0.00033
586.6	0.11293	0.00056
586.64	0.11085	0.00055
586.68	0.11034	0.0005
586.72	0.11589	0.00048
586.76	0.11604	0.00041
586.80	0.11487	0.00053
586.84	0.11859	0.00034
586.88	0.12159	0.00046
586.92	0.12225	0.00034
586.96	0.12245	0.00023
587.0	0.13213	0.00032
587.04	0.13218	0.00042
587.08	0.13305	0.0002
587.12	0.13391	0.00047
587.16	0.14048	0.00047
587.2	0.13503	0.00033
587.24	0.15641	0.00046
587.28	0.14735	0.00042
587.32	0.14705	0.00023
587.36	0.14705	0.0004
587.4	0.15448	0.00036
587.44	0.16212	0.00053
587.48	0.16003	0.00044
587.52	0.16298	0.00041
587.56	0.16232	0.00046
587.6	0.16018	0.00042
587.64	0.16044	0.00057
587.68	0.17143	0.00038
587.72	0.17159	0.00041
587.76	0.16695	0.00052
587.80	0.16879	0.00051
587.84	0.16945	0.00023
587.88	0.16904	0.00025
587.92	0.16695	0.00052
587.96	0.167	0.00041
588.0	0.16033	0.00041
588.04	0.16003	0.00031
588.08	0.15285	0.00046
588.12	0.15733	0.00025
588.16	0.15657	0.00046
588.2	0.15652	0.00027
588.24	0.15636	0.00025
588.28	0.1638	0.00038
588.32	0.14898	0.00048
588.36	0.14302	0.00034
588.4	0.14236	0.00053
588.44	0.13564	0.00036
588.48	0.12897	0.00038
588.52	0.12907	0.00039
588.56	0.13086	0.00025
588.6	0.12093	0.00032
588.64	0.12358	0.0005
588.68	0.11787	0.00046
588.72	0.11971	0.00041
588.76	0.11971	0.00041
588.80	0.11385	0.00053
588.84	0.11395	0.00056
588.88	0.11039	0.00056
588.92	0.10912	0.00044
588.96	0.1082	0.00046
589.0	0.10453	0.00064
589.04	0.11288	0.00038
589.08	0.1082	0.00023
589.12	0.10845	0.00034
589.16	0.10514	0.00032
589.2	0.10657	0.00038
589.24	0.1112	0.00036
589.28	0.10642	0.00025
589.32	0.1083	0.0002
589.36	0.1054	0.00041
589.4	0.1054	0.00034
589.44	0.10357	0.00036
589.48	0.10906	0.0004
589.52	0.10367	0.00036
589.56	0.10922	0.00046
589.6	0.11568	0.00033
589.64	0.11701	0.00046
589.68	0.11477	0.00036
589.72	0.11492	0.00068
589.76	0.11304	0.00052
589.80	0.11889	0.00032
589.84	0.12449	0.00032
589.88	0.12347	0.00051
589.92	0.12617	0.0004
589.96	0.13096	0.00033
590.0	0.13111	0.00051
590.04	0.12719	0.0004
590.08	0.12597	0.00053
590.12	0.13218	0.00048
590.16	0.13865	0.00038
590.2	0.14231	0.00039
590.24	0.14328	0.00042
590.28	0.14511	0.00025
590.32	0.14521	0.00033
590.36	0.1443	0.00036
590.4	0.14313	0.00034
590.44	0.14862	0.00041
590.48	0.15097	2.77556e-17
590.52	0.15443	0.00038
590.56	0.15937	0.00041
590.6	0.15932	0.00041
590.64	0.14694	0.00048
590.68	0.14929	0.0004
590.72	0.1585	0.0005
590.76	0.15479	0.00041
590.80	0.15428	0.00052
590.84	0.1613	0.00033
590.88	0.16115	0.00046
590.92	0.14409	0.00052
590.96	0.14195	0.00023
591.0	0.14888	0.00036
591.04	0.14812	0.00057
591.08	0.15255	0.00058
591.12	0.14588	0.00046
591.16	0.1472	0.00047
591.2	0.1473	0.00038
591.24	0.14705	0.00046
591.28	0.13941	0.00051
591.32	0.15117	0.00047
591.36	0.13854	0.00052
591.4	0.13305	0.00038
591.44	0.13915	0.00038
591.48	0.13931	0.00048
591.52	0.13666	0.00042
591.56	0.13203	0.00044
591.6	0.1275	0.00042
591.64	0.12821	0.0004
591.68	0.12444	0.00027
591.72	0.12851	0.00036
591.76	0.12938	0.00041
591.80	0.12923	0.0004
591.84	0.12256	0.00031
591.88	0.13198	0.0004
591.92	0.12251	0.00027
591.96	0.11772	0.00046
592.0	0.12164	0.00069
592.04	0.12235	0.00031
592.08	0.12271	0.00041
592.12	0.11915	0.00025
592.16	0.12444	0.00042
592.2	0.11874	0.0004
592.24	0.11889	0.00039
592.28	0.11772	0.00051
592.32	0.11614	0.00047
592.36	0.11584	0.00056
592.4	0.1113	0.00042
592.44	0.11808	0.00047
592.48	0.1083	0.0005
592.52	0.11874	0.00033
592.56	0.10448	0.00033
592.6	0.10906	0.00023
592.64	0.10942	0.00034
592.68	0.10896	0.00041
592.72	0.10932	0.00031
592.76	0.10917	0.00036
592.80	0.10749	0.00057
592.84	0.10912	0.00059
592.88	0.10662	0.00036
592.92	0.10657	0.00038
592.96	0.10652	0.00033
593.0	0.10469	0.00048
593.04	0.1055	0.0004
593.08	0.1056	0.00048
593.12	0.10469	0.00027
593.16	0.1084	0.00034
593.2	0.10759	0.0002
593.24	0.10728	0.00031
593.28	0.10738	0.00041
593.32	0.10754	0.00046
593.36	0.10377	0.00046
593.4	0.10764	0.00036
593.44	0.10932	0.00031
593.48	0.10545	0.00041
593.52	0.10835	0.00046
593.56	0.10835	0.0004
593.6	0.10738	0.00041
593.64	0.10749	0.00047
593.68	0.11003	0.00047
593.72	0.11013	0.00059
593.76	0.114	0.00057
593.80	0.11314	0.0004
593.84	0.11309	0.00034
593.88	0.10947	0.00041
593.92	0.11573	0.00044
593.96	0.11986	0.00042
594.0	0.11421	0.0002
594.04	0.11217	0.00038
594.08	0.11197	0.00057
594.12	0.11298	0.00047
594.16	0.11293	0.00046
594.2	0.11502	0.00052
594.24	0.11115	0.00044
594.28	0.11029	0.00027
594.32	0.11217	0.0002
594.36	0.11212	0.00033
594.4	0.11304	0.00041
594.44	0.11319	0.00031
594.48	0.11955	0.00046
594.52	0.11227	0.00039
594.56	0.11502	0.00069
594.6	0.11115	0.00031
594.64	0.11039	0.00068
594.68	0.11049	0.00034
594.72	0.11039	0.00072
594.76	0.1112	0.00036
594.80	0.11217	0.00055
594.84	0.11421	0.00031
594.88	0.11136	0.00068
594.92	0.11024	0.00046
594.96	0.1085	0.00025
595.0	0.1027	0.00031
595.04	0.10301	0.00031
595.08	0.10377	0.0004
595.12	0.1112	0.00066
595.16	0.10443	0.00025
595.2	0.10453	0.00031
595.24	0.10932	0.00044
595.28	0.10942	0.00041
595.32	0.10927	0.00036
595.36	0.10652	0.0004
595.4	0.1029	0.00025
595.44	0.10764	0.00042
595.48	0.10387	0.00034
595.52	0.1054	0.00047
595.56	0.11115	0.00038
595.6	0.1113	0.00048
595.64	0.10362	0.00039
595.68	0.11024	0.00032
595.72	0.10285	0.00041
595.76	0.1055	0.00051
595.80	0.11584	0.00039
595.84	0.10835	0.00033
595.88	0.1029	0.00041
595.92	0.10285	0.00057
595.96	0.1055	0.00065
596.0	0.10489	0.00057
596.04	0.11609	0.00047
596.08	0.10942	0.00034
596.12	0.11411	0.00025
596.16	0.1167	0.00033
596.2	0.1168	0.00042
596.24	0.11507	0.00065
596.28	0.11614	0.00034
596.32	0.11416	0.0004
596.36	0.11523	0.00055
596.4	0.11614	0.00034
596.44	0.11517	0.00023
596.48	0.11792	0.00036
596.52	0.11782	0.00042
596.56	0.12067	0.00025
596.6	0.11309	0.00041
596.64	0.11604	0.00034
596.68	0.11619	0.0004
596.72	0.12256	0.00031
596.76	0.12907	0.00032
596.80	0.12918	0.00031
596.84	0.11762	0.00047
596.88	0.12744	0.00038
596.92	0.13223	0.0005
596.96	0.11685	0.00032
597.0	0.12709	0.00036
597.04	0.12729	0.00057
597.08	0.12739	0.0004
597.12	0.12454	0.00036
597.16	0.12358	0.00038
597.2	0.12363	0.00051
597.24	0.12439	0.00038
597.28	0.12337	0.00038
597.32	0.13218	0.00027
597.36	0.13014	0.00042
597.4	0.12999	0.00031
597.44	0.13498	0.00047
597.48	0.13595	0.00041
597.52	0.13493	0.00034
597.56	0.13223	0.00064
597.6	0.13406	0.00055
597.64	0.13223	0.00038
597.68	0.13203	0.00031
597.72	0.13086	0.00034
597.76	0.12923	0.00023
597.80	0.13203	0.0002
597.84	0.12062	0.00034
597.88	0.13111	0.00039
597.92	0.13753	0.00047
597.96	0.12999	0.00038
598.0	0.13035	0.00034
598.04	0.12378	0.00034
598.08	0.12612	0.00044
598.12	0.12918	0.00059
598.16	0.11981	0.00031
598.2	0.12245	0.00056
598.24	0.12724	0.00047
598.28	0.12719	0.00046
598.32	0.12342	0.00036
598.36	0.13009	0.00046
598.4	0.12429	0.00025
598.44	0.12154	0.00031
598.48	0.12327	0.00047
598.52	0.12643	0.00059
598.56	0.12643	0.00055
598.6	0.11965	0.00034
598.64	0.12627	0.00041
598.68	0.11864	0.00041
598.72	0.12358	0.00038
598.76	0.11782	0.00058
598.80	0.11889	0.00032
598.84	0.1308	0.00034
598.88	0.13116	0.00042
598.92	0.12454	0.00048
598.96	0.12251	0.00036
599.0	0.11986	0.00042
599.04	0.12531	0.00041
599.08	0.12663	0.00038
599.12	0.12256	0.00031
599.16	0.12245	0.00023
599.2	0.128	0.00053
599.24	0.12266	0.00047
599.28	0.12724	0.00061
599.32	0.12897	0.0002
599.36	0.12067	0.00034
599.4	0.11879	0.00031
599.44	0.11874	0.00033
599.48	0.11696	0.00038
599.52	0.12093	0.00032
599.56	0.11685	0.00046
599.6	0.11604	0.00034
599.64	0.11502	0.00041
599.68	0.11502	0.00047
599.72	0.1222	0.00041
599.76	0.12271	0.00034
599.80	0.11609	0.00025
599.84	0.1168	0.00042
599.88	0.11772	0.0004
599.92	0.11492	0.00044
599.96	0.1083	0.00055
600.0	0.11136	0.0005
600.04	0.11095	0.00047
600.08	0.1112	0.00036
600.12	0.11472	0.00038
600.16	0.10581	0.00023
600.2	0.11467	0.00033
600.24	0.11115	0.0005
600.28	0.11314	0.0004
600.32	0.11212	0.00033
600.36	0.11227	0.00056
600.4	0.10448	0.00033
600.44	0.10392	0.00041
600.48	0.11609	0.00041
600.52	0.10927	0.00036
600.56	0.10621	0.00042
600.6	0.10662	0.00042
600.64	0.10632	0.00051
600.68	0.10377	0.0004
600.72	0.11034	0.00038
600.76	0.10525	0.00038
600.80	0.1055	0.00056
600.84	0.10352	0.00038
600.88	0.10545	0.00057
600.92	0.10565	0.00051
600.96	0.10199	0.0005
601.0	0.10535	0.00047
601.04	0.10657	0.00038
601.08	0.10285	0.00041
601.12	0.10382	0.00052
601.16	0.10917	0.00036
601.2	0.10458	0.00042
601.24	0.10458	0.00036
601.28	0.10733	0.0004
601.32	0.1055	0.00051
601.36	0.11018	0.00053
601.4	0.1027	0.0005
601.44	0.10168	0.0005
601.48	0.09929	0.00052
601.52	0.09914	0.00038
601.56	0.097	0.00032
601.6	0.10158	0.00046
601.64	0.10621	0.00048
601.68	0.10469	0.00048
601.72	0.10194	0.0004
601.76	0.10469	0.00053
601.80	0.10469	0.00042
601.84	0.10525	0.00044
601.88	0.10728	0.00038
601.92	0.10199	0.00059
601.96	0.1056	0.00053
602.0	0.10759	0.00059
602.04	0.10845	0.00041
602.08	0.10265	0.00042
602.12	0.10275	0.00046
602.16	0.10545	0.00047
602.2	0.11003	0.00047
602.24	0.10754	0.00046
602.28	0.10932	0.00031
602.32	0.10657	0.00038
602.36	0.10576	0.00038
602.4	0.1055	0.0004
602.44	0.10382	0.00025
602.48	0.10545	0.00065
602.52	0.1053	0.0004
602.56	0.10626	0.00044
602.6	0.10087	0.00025
602.64	0.10453	0.00038
602.68	0.10555	0.00044
602.72	0.10581	0.00056
602.76	0.10632	0.00033
602.80	0.10341	0.00041
602.84	0.1056	0.00053
602.88	0.10632	0.00033
602.92	0.1082	0.00032
602.96	0.10183	0.00041
603.0	0.10173	0.00051
603.04	0.11207	0.00025
603.08	0.11115	0.00038
603.12	0.11105	0.00052
603.16	0.11197	0.00041
603.2	0.10759	0.00044
603.24	0.11411	0.00047
603.28	0.1138	0.00039
603.32	0.10632	0.00033
603.36	0.10453	0.00031
603.4	0.10728	0.00044
603.44	0.10906	0.00046
603.48	0.11034	0.00038
603.52	0.11202	0.00034
603.56	0.10769	0.00032
603.6	0.10749	0.00047
603.64	0.10744	0.00034
603.68	0.1112	0.00036
603.72	0.10906	0.00051
603.76	0.11008	0.00046
603.80	0.1112	0.00036
603.84	0.1056	0.00042
603.88	0.1055	0.00033
603.92	0.11416	0.0004
603.96	0.11212	0.00046
604.0	0.10738	0.00047
604.04	0.11029	0.00048
604.08	0.11685	0.00039
604.12	0.10738	0.00041
604.16	0.10744	0.00047
604.2	0.11212	0.0004
604.24	0.10733	0.0004
604.28	0.11034	0.00031
604.32	0.10448	0.00033
604.36	0.10744	0.00065
604.4	0.11202	0.00034
604.44	0.10927	0.00036
604.48	0.10906	0.0004
604.52	0.10367	0.00036
604.56	0.10744	0.00041
604.6	0.11227	0.00039
604.64	0.11405	0.00047
604.68	0.11624	0.00044
604.72	0.11309	0.00041
604.76	0.11329	0.00051
604.80	0.10718	0.00032
604.84	0.1083	0.00038
604.88	0.10535	0.00025
604.92	0.111	0.00052
604.96	0.11049	0.00041
605.0	0.11395	0.00051
605.04	0.10448	0.00033
605.08	0.10453	0.00038
605.12	0.10662	0.00048
605.16	0.10942	0.00041
605.2	0.10733	0.00051
605.24	0.11202	0.00034
605.28	0.11411	0.00057
605.32	0.10469	0.00027
605.36	0.10438	0.00041
605.4	0.11227	0.00032
605.44	0.10066	0.0002
605.48	0.10637	0.00057
605.52	0.11105	0.00041
605.56	0.11018	0.00048
605.6	0.10469	0.00036
605.64	0.10464	0.00039
605.68	0.10087	0.00047
605.72	0.10738	0.00034
605.76	0.10825	0.00027
605.80	0.10642	0.00025
605.84	0.1082	0.00032
605.88	0.10738	0.00041
605.92	0.10453	0.00038
605.96	0.10448	0.0004
606.0	0.10733	0.00056
606.04	0.10189	0.00057
606.08	0.10708	0.00038
606.12	0.10744	0.00034
606.16	0.1056	0.00042
606.2	0.10285	0.00041
606.24	0.10301	0.0005
606.28	0.10275	0.00051
606.32	0.11115	0.00031
606.36	0.10749	0.00047
606.4	0.11492	0.00031
606.44	0.10815	0.00027
606.48	0.10464	0.00032
606.52	0.10071	0.00051
606.56	0.10082	0.00041
606.6	0.11212	0.00051
606.64	0.10448	0.00033
606.68	0.1084	0.00041
606.72	0.11792	0.00042
606.76	0.1057	0.00053
606.80	0.11772	0.00065
606.84	0.11777	0.00059
606.88	0.1084	0.00034
606.92	0.1082	0.00039
606.96	0.11787	0.00046
607.0	0.11971	0.00052
607.04	0.11497	0.0004
607.08	0.11803	0.0006
607.12	0.11777	0.00044
607.16	0.11976	0.00046
607.2	0.12077	0.00023
607.24	0.12347	0.00032
607.28	0.12515	0.0004
607.32	0.13203	0.00031
607.36	0.12816	0.00038
607.4	0.12912	0.00036
607.44	0.12928	0.00025
607.48	0.12739	0.00033
607.52	0.12734	0.00041
607.56	0.12342	0.00036
607.6	0.12724	0.00034
607.64	0.13014	0.00048
607.68	0.13294	0.00041
607.72	0.13284	0.00052
607.76	0.12627	0.00052
607.80	0.12139	0.00015
607.84	0.12816	0.0005
607.88	0.12841	0.00056
607.92	0.12149	0.00042
607.96	0.12918	0.00031
608.0	0.12923	0.0004
608.04	0.12169	0.00041
608.08	0.12159	0.00033
608.12	0.11981	0.00055
608.16	0.12077	0.00023
608.2	0.11965	0.00047
608.24	0.11792	0.00036
608.28	0.11288	0.00038
608.32	0.11293	0.00065
608.36	0.11125	0.00051
608.4	0.12088	0.00036
608.44	0.11044	0.00025
608.48	0.11599	0.0004
608.52	0.10942	0.00041
608.56	0.1055	0.00033
608.6	0.10565	0.00039
608.64	0.10723	0.00042
608.68	0.10458	0.00036
608.72	0.10458	0.00036
608.76	0.10744	0.00047
608.80	0.10835	0.00033
608.84	0.10754	0.00056
608.88	0.10173	0.0006
608.92	0.10194	0.00046
608.96	0.10906	0.00046
609.0	0.10688	0.00034
609.04	0.1082	0.00023
609.08	0.11298	0.00057
609.12	0.10912	0.00055
609.16	0.10637	0.00025
609.2	0.10642	0.00041
609.24	0.11044	0.00034
609.28	0.10733	0.00046
609.32	0.10647	0.00041
609.36	0.10448	0.00023
609.4	0.11141	0.0004
609.44	0.10749	0.00047
609.48	0.10738	0.00061
609.52	0.10163	0.00053
609.56	0.10621	0.00048
609.6	0.11192	0.00046
609.64	0.10453	0.00044
609.68	0.11395	0.0004
609.72	0.10754	0.00046
609.76	0.11716	0.00034
609.80	0.1168	0.00036
609.84	0.10555	0.00038
609.88	0.11227	0.00032
609.92	0.11411	0.00025
609.96	0.11013	0.0005
610.0	0.11024	0.00051
610.04	0.11696	0.00038
610.08	0.1168	0.00027
610.12	0.10464	0.00051
610.16	0.11115	0.00044
610.2	0.10535	0.00034
610.24	0.10718	0.00056
610.28	0.10178	0.00041
610.32	0.10652	0.00033
610.36	0.10626	0.00038
610.4	0.11202	0.00025
610.44	0.10749	0.00052
610.48	0.11298	0.00034
610.52	0.10754	0.00046
610.56	0.10148	0.00044
610.6	0.10382	0.00041
610.64	0.1083	0.00059
610.68	0.1082	0.00032
610.72	0.10626	0.00059
610.76	0.11604	0.00041
610.80	0.10387	0.00034
610.84	0.1083	0.00038
610.88	0.10306	0.00053
610.92	0.10815	0.00042
610.96	0.10835	0.0004
611.0	0.10372	0.00044
611.04	0.10367	0.00042
611.08	0.10637	0.00025
611.12	0.1056	0.00036
611.16	0.10555	0.0005
611.2	0.1084	0.00041
611.24	0.10194	0.00033
611.28	0.10173	0.00051
611.32	0.10937	0.0004
611.36	0.11024	0.00039
611.4	0.1055	0.0004
611.44	0.11034	0.00038
611.48	0.11385	0.00048
611.52	0.11497	0.00033
611.56	0.11507	0.00052
611.6	0.1083	0.0005
611.64	0.11197	0.00041
611.68	0.11594	0.00038
611.72	0.11008	0.00046
611.76	0.11034	0.00059
611.80	0.11614	0.00057
611.84	0.11619	0.0004
611.88	0.12093	0.00039
611.92	0.11991	0.00046
611.96	0.11614	0.00041
612.0	0.12536	0.00056
612.04	0.11298	0.00061
612.08	0.11685	0.00046
612.12	0.11395	0.00033
612.16	0.11395	0.00056
612.2	0.1195	0.0005
612.24	0.10988	0.00056
612.28	0.1112	0.00048
612.32	0.11874	0.00023
612.36	0.11304	0.00041
612.4	0.11604	0.00047
612.44	0.11594	0.00038
612.48	0.11024	0.00064
612.52	0.1138	0.00039
612.56	0.11787	0.00032
612.6	0.11405	0.00034
612.64	0.10912	0.00038
612.68	0.10912	0.00055
612.72	0.11385	0.00058
612.76	0.11395	0.00046
612.80	0.10275	0.00056
612.84	0.11115	0.00031
612.88	0.11008	0.0004
612.92	0.11024	0.00046
612.96	0.1055	0.00033
613.0	0.10642	0.00034
613.04	0.10621	0.00058
613.08	0.11013	0.00044
613.12	0.10545	0.00052
613.16	0.10927	0.00053
613.2	0.10667	0.00039
613.24	0.1027	0.00038
613.28	0.10469	0.00027
613.32	0.10428	0.0004
613.36	0.10662	0.00042
613.4	0.10555	0.00055
613.44	0.10759	0.00055
613.48	0.1027	0.00038
613.52	0.1084	0.00057
613.56	0.10749	0.00052
613.6	0.10657	0.00055
613.64	0.10637	0.00034
613.68	0.10367	0.00042
613.72	0.10779	0.0002
613.76	0.11146	0.00047
613.80	0.10464	0.00032
613.84	0.10632	0.00033
613.88	0.10657	0.0005
613.92	0.10657	0.00038
613.96	0.1054	0.00034
614.0	0.1055	0.00051
614.04	0.10392	0.00034
614.08	0.11298	0.00034
614.12	0.10749	0.00047
614.16	0.10199	0.00044
614.2	0.10168	0.00038
614.24	0.10626	0.0002
614.28	0.1136	0.00057
614.32	0.11115	0.00031
614.36	0.10514	0.00039
614.4	0.10754	0.00046
614.44	0.10382	0.00057
614.48	0.10448	0.00023
614.52	0.10464	0.00032
614.56	0.11018	0.00048
614.6	0.10932	0.00038
614.64	0.1054	0.00052
614.68	0.11008	0.0004
614.72	0.10652	0.0004
614.76	0.11421	0.00038
614.80	0.11411	0.00047
614.84	0.10728	0.00038
614.88	0.10901	0.00061
614.92	0.1029	0.00025
614.96	0.10917	0.00027
615.0	0.10015	0.00044
615.04	0.11024	0.00032
615.08	0.10835	0.00023
615.12	0.108	0.00034
615.16	0.10749	0.00047
615.2	0.1081	0.00031
615.24	0.10352	0.00055
615.28	0.11283	0.00053
615.32	0.10901	0.00052
615.36	0.10749	0.00047
615.4	0.10733	0.00033
615.44	0.11136	0.00055
615.48	0.10744	0.00073
615.52	0.11049	0.00025
615.56	0.10754	0.00046
615.6	0.11497	0.0006
615.64	0.10397	0.00033
615.68	0.10367	0.00036
615.72	0.10183	0.00041
615.76	0.09893	0.00038
615.80	0.10922	0.00039
615.84	0.10937	0.00033
615.88	0.114	0.00047
615.92	0.10922	0.00046
615.96	0.1029	0.00047
616.0	0.10285	0.00057
616.04	0.11049	0.00041
616.08	0.10377	0.00046
616.12	0.10749	0.00041
616.16	0.11304	0.00034
616.2	0.10632	0.00065
616.24	0.10443	0.00025
616.28	0.10438	0.00034
616.32	0.10173	0.00056
616.36	0.10932	0.00031
616.4	0.10825	0.00042
616.44	0.1025	0.00038
616.48	0.10759	0.0005
616.52	0.10367	0.00048
616.56	0.10331	0.00025
616.6	0.10448	0.00023
616.64	0.1	0.00036
616.68	0.10952	0.00057
616.72	0.10275	0.0004
616.76	0.11217	0.00031
616.80	0.11095	0.00047
616.84	0.1054	0.00052
616.88	0.1057	0.00053
616.92	0.10652	0.0004
616.96	0.10606	0.0005
617.0	0.11222	0.00042
617.04	0.10835	0.00033
617.08	0.10845	0.00025
617.12	0.11136	0.0005
617.16	0.1112	0.00042
617.2	0.10912	0.0002
617.24	0.10555	0.00044
617.28	0.10642	0.00047
617.32	0.10947	0.00041
617.36	0.10077	0.00041
617.4	0.11314	0.00046
617.44	0.11049	0.00041
617.48	0.11029	0.00042
617.52	0.10647	0.00034
617.56	0.1111	0.0004
617.6	0.11115	0.0005
617.64	0.1084	0.00025
617.68	0.11492	0.00038
617.72	0.11792	0.00042
617.76	0.11782	0.00042
617.80	0.11986	0.00042
617.84	0.12454	0.00048
617.88	0.12052	0.00031
617.92	0.11573	0.00038
617.96	0.11421	0.0002
618.0	0.11777	0.0005
618.04	0.11772	0.00046
618.08	0.11869	0.00047
618.12	0.12928	0.00041
618.16	0.13559	0.00044
618.2	0.13126	0.00046
618.24	0.13213	0.00056
618.28	0.13559	0.00055
618.32	0.14608	0.00025
618.36	0.14582	0.00027
618.4	0.1498	0.00033
618.44	0.15555	0.00039
618.48	0.15911	0.00032
618.52	0.15738	0.00025
618.56	0.16609	0.00046
618.6	0.16884	0.00036
618.64	0.16884	0.00027
618.68	0.17535	0.00062
618.72	0.17556	0.0004
618.76	0.17714	0.00025
618.80	0.1865	0.0002
618.84	0.186	0.00031
618.88	0.18381	0.00041
618.92	0.18355	0.00056
618.96	0.17429	0.00038
619.0	0.18019	0.00061
619.04	0.17815	0.00041
619.08	0.18386	0.00047
619.12	0.17887	0.00044
619.16	0.18503	0.00036
619.2	0.16894	0.00033
619.24	0.16879	0.00046
619.28	0.16782	0.00036
619.32	0.16293	0.00041
619.36	0.16599	0.00034
619.4	0.15382	0.00034
619.44	0.15188	0.0005
619.48	0.14313	0.00034
619.52	0.14328	0.00053
619.56	0.13391	0.00047
619.6	0.13946	0.00034
619.64	0.13503	0.00046
619.68	0.13503	0.00056
619.72	0.12739	0.00056
619.76	0.12164	0.00041
619.80	0.11599	0.00033
619.84	0.11584	0.00046
619.88	0.11405	0.00034
619.92	0.11487	0.00048
619.96	0.10901	0.00034
620.0	0.10901	0.00047
620.04	0.11604	0.00041
620.08	0.11044	0.00047
620.12	0.11024	0.00039
620.16	0.10565	0.00051
620.2	0.10525	0.00038
620.24	0.10932	0.00031
620.28	0.10474	0.00044
620.32	0.1085	0.00041
620.36	0.1054	0.00047
620.4	0.10525	0.00044
620.44	0.10917	0.00048
620.48	0.11003	0.00052
620.52	0.10728	0.0005
620.56	0.1056	0.00048
620.6	0.10647	0.00025
620.64	0.10632	0.00033
620.68	0.11242	0.00033
620.72	0.11232	0.00036
620.76	0.11034	0.0005
620.80	0.11309	0.00047
620.84	0.1111	0.0004
620.88	0.11024	0.00032
620.92	0.1138	0.00039
620.96	0.10815	0.00027
621.0	0.10825	0.00036
621.04	0.11293	0.00023
621.08	0.1084	0.00041
621.12	0.12057	0.0004
621.16	0.11482	0.00039
621.2	0.11309	0.00041
621.24	0.11207	0.00034
621.28	0.11889	0.00046
621.32	0.11874	0.00023
621.36	0.11329	0.00032
621.4	0.11034	0.00038
621.44	0.11563	0.00047
621.48	0.12072	0.00025
621.52	0.11512	0.00047
621.56	0.12337	0.0005
621.6	0.12332	0.00051
621.64	0.11772	0.00046
621.68	0.11792	0.00042
621.72	0.11594	0.00038
621.76	0.11614	0.00041
621.80	0.12526	0.00025
621.84	0.12154	0.00044
621.88	0.12133	0.00038
621.92	0.11685	0.00032
621.96	0.11986	0.00036
622.0	0.11981	0.00044
622.04	0.12526	0.00041
622.08	0.12429	0.00041
622.12	0.12602	0.00039
622.16	0.13101	0.00044
622.2	0.13111	0.00032
622.24	0.13182	0.00061
622.28	0.1303	0.00041
622.32	0.13951	0.00057
622.36	0.14725	0.00051
622.4	0.15346	0.00027
622.44	0.14776	0.00046
622.48	0.14822	0.00052
622.52	0.14812	0.00034
622.56	0.14521	0.0004
622.6	0.15529	0.00034
622.64	0.17128	0.00015
622.68	0.17143	0.00031
622.72	0.16502	0.00052
622.76	0.16522	0.00051
622.80	0.167	0.00034
622.84	0.16716	0.00031
622.88	0.18202	0.00039
622.92	0.17317	0.00041
622.96	0.17551	0.00031
623.0	0.17342	0.00036
623.04	0.17235	0.00039
623.08	0.17261	0.00052
623.12	0.17042	0.00038
623.16	0.1722	0.00033
623.2	0.16874	0.00058
623.24	0.15738	0.00025
623.28	0.17352	0.00033
623.32	0.16492	0.00034
623.36	0.16492	0.00041
623.4	0.167	0.00041
623.44	0.16033	0.00052
623.48	0.15535	0.00052
623.52	0.15453	0.00046
623.56	0.15367	0.00023
623.6	0.13936	0.00044
623.64	0.14414	0.00052
623.68	0.14414	0.00047
623.72	0.12724	0.00052
623.76	0.13386	0.00047
623.80	0.12816	0.00038
623.84	0.11675	0.00038
623.88	0.12358	0.00038
623.92	0.12245	0.00032
623.96	0.1224	0.00058
624.0	0.11981	0.00044
624.04	0.11421	0.00031
624.08	0.11685	0.00032
624.12	0.11782	0.00027
624.16	0.11619	0.0004
624.2	0.11237	0.0002
624.24	0.11202	0.00034
624.28	0.11324	0.00053
624.32	0.11691	0.00027
624.36	0.11864	0.00047
624.4	0.10759	0.0005
624.44	0.11416	0.00046
624.48	0.1054	0.00047
624.52	0.10927	0.00036
624.56	0.10917	0.00058
624.6	0.10835	0.0004
624.64	0.11517	0.00046
624.68	0.11024	0.00023
624.72	0.10469	0.00042
624.76	0.10637	0.00025
624.80	0.10759	0.00044
624.84	0.10769	0.00032
624.88	0.10545	0.00034
624.92	0.11298	0.00025
624.96	0.1109	0.0004
625.0	0.11018	0.00036
625.04	0.10744	0.00047
625.08	0.11105	0.00034
625.12	0.11115	0.0002
625.16	0.11304	0.00057
625.2	0.1111	0.00033
625.24	0.1085	0.00047
625.28	0.11207	0.00025
625.32	0.11095	0.00041
625.36	0.10835	0.00033
625.4	0.10581	0.00051
625.44	0.10576	0.00044
625.48	0.11431	0.00051
625.52	0.10835	0.00056
625.56	0.11018	0.00053
625.6	0.1054	0.00047
625.64	0.10835	0.0004
625.68	0.11324	0.00042
625.72	0.11263	0.00033
625.76	0.11232	0.00042
625.80	0.10382	0.00025
625.84	0.1054	0.00041
625.88	0.10555	0.00068
625.92	0.10616	0.00039
625.96	0.10942	0.00034
626.0	0.11202	0.00034
626.04	0.11222	0.00036
626.08	0.1139	0.00038
626.12	0.11777	0.00059
626.16	0.1082	0.00039
626.2	0.11492	0.0005
626.24	0.11472	0.00038
626.28	0.11202	0.00025
626.32	0.11217	0.00031
626.36	0.10565	0.00039
626.4	0.10845	0.00034
626.44	0.1027	0.00044
626.48	0.10464	0.00039
626.52	0.10626	0.0002
626.56	0.1082	0.00068
626.6	0.1084	0.00034
626.64	0.11217	0.00044
626.68	0.10626	0.00044
626.72	0.11217	0.00031
626.76	0.10514	0.00032
626.80	0.10942	0.00052
626.84	0.10764	0.00036
626.88	0.11029	0.00027
626.92	0.11049	0.00025
626.96	0.11202	0.00041
627.0	0.11309	0.00047
627.04	0.11013	0.00044
627.08	0.1084	0.00034
627.12	0.11273	0.00036
627.16	0.11125	0.00046
627.2	0.11125	0.00039
627.24	0.11034	0.0005
627.28	0.10657	0.00044
627.32	0.10637	0.00025
627.36	0.11467	0.00033
627.4	0.11049	0.00025
627.44	0.11003	0.00061
627.48	0.11395	0.0004
627.52	0.114	0.00034
627.56	0.11517	0.00033
627.6	0.11467	0.0004
627.64	0.11599	0.0004
627.68	0.1168	0.00042
627.72	0.11797	0.0005
627.76	0.10912	0.00031
627.80	0.10896	0.00041
627.84	0.11115	0.00055
627.88	0.11125	0.00039
627.92	0.10183	0.00041
627.96	0.12256	0.00031
628.0	0.11884	0.00042
628.04	0.11309	0.00034
628.08	0.11324	0.00048
628.12	0.11039	0.00023
628.16	0.11492	0.0005
628.2	0.11304	0.00052
628.24	0.11207	0.00025
628.28	0.11971	0.00047
628.32	0.12088	0.00027
628.36	0.12179	0.00051
628.4	0.12164	0.00041
628.44	0.11823	0.0004
628.48	0.12062	0.00034
628.52	0.12368	0.00057
628.56	0.11691	0.00036
628.6	0.11869	0.00034
628.64	0.12215	0.00057
628.68	0.12271	0.00041
628.72	0.12047	0.00036
628.76	0.13014	0.00036
628.80	0.12999	0.0005
628.84	0.13014	0.00036
628.88	0.12653	0.00032
628.92	0.12251	0.00036
628.96	0.1223	0.00051
629.0	0.13014	0.00042
629.04	0.13391	0.00025
629.08	0.13238	0.00025
629.12	0.13564	0.00036
629.16	0.13019	0.00038
629.2	0.13009	0.00046
629.24	0.13294	0.00034
629.28	0.13305	0.00038
629.32	0.13305	0.00038
629.36	0.13208	0.00042
629.4	0.1276	0.00048
629.44	0.13121	0.00059
629.48	0.13768	0.00036
629.52	0.12714	0.0005
629.56	0.12724	0.00052
629.6	0.12169	0.00047
629.64	0.12918	0.00044
629.68	0.12337	0.00059
629.72	0.11965	0.00052
629.76	0.12816	0.00038
629.80	0.12373	0.00047
629.84	0.125	0.00046
629.88	0.12536	0.0004
629.92	0.11792	0.00048
629.96	0.12042	0.00039
630.0	0.11894	0.00036
630.04	0.12251	0.00036
630.08	0.11517	0.0004
630.12	0.10942	0.00057
630.16	0.10917	0.00053
630.2	0.11029	0.00027
630.24	0.11293	0.00033
630.28	0.10632	0.00023
630.32	0.11202	0.00025
630.36	0.10367	0.00036
630.4	0.10275	0.00051
630.44	0.1029	0.00061
630.48	0.11222	0.00027
630.52	0.1111	0.00033
630.56	0.10596	0.00025
630.6	0.10642	0.00034
630.64	0.10474	0.00038
630.68	0.1053	0.00033
630.72	0.10749	0.00057
630.76	0.10738	0.00025
630.80	0.10458	0.00027
630.84	0.0998	0.00041
630.88	0.10647	0.00025
630.92	0.1028	0.00057
630.96	0.10815	0.00042
631.0	0.10464	0.00039
631.04	0.10469	0.00066
631.08	0.10265	0.00042
631.12	0.10647	0.00034
631.16	0.10275	0.0004
631.2	0.1027	0.0002
631.24	0.10626	0.00031
631.28	0.10275	0.00033
631.32	0.1027	0.00031
631.36	0.10647	0.00041
631.4	0.10066	0.00031
631.44	0.10015	0.00038
631.48	0.10346	0.00051
631.52	0.10657	0.00044
631.56	0.10464	0.00032
631.6	0.10479	0.00033
631.64	0.10453	0.0005
631.68	0.10616	0.00039
631.72	0.1054	0.00047
631.76	0.1056	0.00027
631.80	0.10616	0.00023
631.84	0.10805	0.0004
631.88	0.11237	0.0002
631.92	0.11212	0.00051
631.96	0.12464	0.00033
632.0	0.12836	0.00034
632.04	0.12653	0.00039
632.08	0.13753	0.00047
632.12	0.13177	0.00046
632.16	0.14048	0.00041
632.2	0.14694	0.00048
632.24	0.14684	0.00036
632.28	0.14623	0.0004
632.32	0.15682	0.00034
632.36	0.16324	0.00042
632.4	0.15947	0.00051
632.44	0.17143	0.00044
632.48	0.16792	0.00051
632.52	0.16792	0.0004
632.56	0.17357	0.00057
632.6	0.18101	0.00032
632.64	0.17739	0.00036
632.68	0.18187	0.00033
632.72	0.17989	0.00038
632.76	0.18941	0.00025
632.80	0.18961	0.00036
632.84	0.19409	0.00046
632.88	0.18936	0.00041
632.92	0.19155	0.00046
632.96	0.18406	0.00023
633.0	0.18238	0.00033
633.04	0.18019	0.00034
633.08	0.17444	0.00042
633.12	0.17418	0.00041
633.16	0.17454	0.0004
633.2	0.16695	0.00041
633.24	0.17057	0.00034
633.28	0.1753	0.00031
633.32	0.16303	0.0004
633.36	0.1614	0.00052
633.4	0.1611	0.00048
633.44	0.16303	0.0006
633.48	0.14145	0.00033
633.52	0.15463	0.00068
633.56	0.14435	0.00039
633.6	0.14338	0.00053
633.64	0.14618	0.00041
633.68	0.13019	0.00038
633.72	0.13014	0.00048
633.76	0.13101	0.00044
633.80	0.12607	0.00036
633.84	0.12729	0.00047
633.88	0.13289	0.00034
633.92	0.12434	0.00046
633.96	0.12067	0.00041
634.0	0.12072	0.00025
634.04	0.12144	0.00039
634.08	0.11426	0.00042
634.12	0.11787	0.00056
634.16	0.11034	0.0005
634.2	0.111	0.00041
634.24	0.1055	0.00046
634.28	0.10545	0.00034
634.32	0.10443	0.00034
634.36	0.10896	0.00025
634.4	0.11008	0.00046
634.44	0.10464	0.00023
634.48	0.10071	0.0004
634.52	0.10265	0.00027
634.56	0.09822	0.00034
634.6	0.09797	0.00042
634.64	0.10387	0.00047
634.68	0.11034	0.00031
634.72	0.10194	0.00033
634.76	0.10469	0.00036
634.80	0.10352	0.0005
634.84	0.0998	0.00034
634.88	0.0999	0.00033
634.92	0.1056	0.00042
634.96	0.10738	0.00047
635.0	0.1027	0.00044
635.04	0.10082	0.00034
635.08	0.10642	0.00034
635.12	0.10749	0.00034
635.16	0.10754	0.00051
635.2	0.1054	0.00052
635.24	0.10102	0.00036
635.28	0.10158	0.00046
635.32	0.10153	0.00042
635.36	0.10647	0.00034
635.4	0.10178	0.00047
635.44	0.10652	0.0004
635.48	0.10662	0.00042
635.52	0.11319	0.0005
635.56	0.10555	0.0005
