Raman-Spectrum _CHCl3 _spol9001.dat
27/09/2021
15:04:23
_CHCl3
_spol90 Temp: NON
X in nm	Y Signal 	Error Signal				
560.04000	0.10199	0.00031
560.08000	0.10178	0.00041
560.12000	0.10387	0.00047
560.16000	0.10382	0.00041
560.20000	0.10377	0.00033
560.24000	0.10626	0.00031
560.28000	0.10377	0.00046
560.32000	0.10372	0.00038
560.36000	0.10077	0.00034
560.40000	0.10530	0.00033
560.44000	0.09903	0.00060
560.48000	0.09919	0.00060
560.52000	0.10555	0.00050
560.56000	0.10270	0.00031
560.60000	0.10626	0.00038
560.64000	0.10122	0.00033
560.68000	0.10535	0.00041
560.72000	0.11115	0.00038
560.76000	0.11080	0.00027
560.80000	0.10194	0.00040
560.84000	0.10392	0.00025
560.88000	0.10474	0.00038
560.92000	0.09985	0.00057
560.96000	0.10550	0.00046
561.00000	0.10163	0.00042
561.04000	0.10357	0.00036
561.08000	0.10387	0.00047
561.12000	0.10071	0.00023
561.16000	0.09685	0.00023
561.20000	0.10550	0.00033
561.24000	0.10479	0.00023
561.28000	0.10010	0.00036
561.32000	0.10301	0.00031
561.36000	0.10295	0.00040
561.40000	0.10382	0.00034
561.44000	0.10183	0.00034
561.48000	0.10153	0.00048
561.52000	0.10749	0.00057
561.56000	0.10199	0.00050
561.60000	0.10535	0.00041
561.64000	0.10469	0.00036
561.68000	0.10464	0.00039
561.72000	0.10168	0.00031
561.76000	0.10285	0.00047
561.80000	0.10285	0.00025
561.84000	0.10204	0.00042
561.88000	0.10555	0.00044
561.92000	0.10738	0.00061
561.96000	0.10754	0.00040
562.00000	0.10280	0.00041
562.04000	0.10280	0.00025
562.08000	0.10275	0.00060
562.12000	0.10555	0.00038
562.16000	0.10555	0.00044
562.20000	0.10092	0.00040
562.24000	0.10077	0.00025
562.28000	0.10173	0.00046
562.32000	0.10754	0.00065
562.36000	0.10357	0.00027
562.40000	0.10178	0.00052
562.44000	0.10525	0.00038
562.48000	0.10484	0.00034
562.52000	0.09817	0.00040
562.56000	0.09807	0.00027
562.60000	0.09786	0.00051
562.64000	0.09985	0.00041
562.68000	0.10382	0.00034
562.72000	0.10209	0.00032
562.76000	0.10565	0.00039
562.80000	0.10189	0.00034
562.84000	0.10183	0.00034
562.88000	0.10092	0.00051
562.92000	0.10270	0.00031
562.96000	0.10071	0.00040
563.00000	0.10173	0.00040
563.04000	0.10168	0.00031
563.08000	0.09995	0.00038
563.12000	0.09975	0.00041
563.16000	0.10000	0.00053
563.20000	0.10285	0.00034
563.24000	0.10077	0.00041
563.28000	0.10066	0.00031
563.32000	0.09980	0.00052
563.36000	0.10688	0.00052
563.40000	0.10173	0.00033
563.44000	0.10173	0.00051
563.48000	0.09893	0.00068
563.52000	0.10071	0.00033
563.56000	0.09995	0.00038
563.60000	0.10560	0.00042
563.64000	0.10555	0.00044
563.68000	0.10448	0.00040
563.72000	0.10474	0.00050
563.76000	0.10565	0.00051
563.80000	0.10275	0.00040
563.84000	0.10662	0.00053
563.88000	0.10845	0.00041
563.92000	0.10545	0.00047
563.96000	0.10194	0.00023
564.00000	0.10560	0.00042
564.04000	0.10545	0.00034
564.08000	0.10265	0.00042
564.12000	0.10377	0.00033
564.16000	0.10545	0.00047
564.20000	0.10840	0.00034
564.24000	0.10810	0.00044
564.28000	0.10560	0.00058
564.32000	0.10555	0.00050
564.36000	0.10845	0.00025
564.40000	0.11293	0.00046
564.44000	0.11130	0.00048
564.48000	0.11706	0.00025
564.52000	0.12062	0.00047
564.56000	0.11675	0.00038
564.60000	0.11691	0.00042
564.64000	0.12052	0.00038
564.68000	0.11991	0.00032
564.72000	0.12632	0.00047
564.76000	0.12602	0.00039
564.80000	0.13203	0.00044
564.84000	0.13014	0.00036
564.88000	0.13600	0.00052
564.92000	0.13595	0.00041
564.96000	0.13483	0.00051
565.00000	0.13921	0.00036
565.04000	0.14114	0.00040
565.08000	0.14043	0.00040
565.12000	0.13747	0.00041
565.16000	0.15076	0.00034
565.20000	0.15076	0.00061
565.24000	0.14236	0.00042
565.28000	0.13859	0.00046
565.32000	0.14236	0.00036
565.36000	0.14893	0.00046
565.40000	0.14796	0.00036
565.44000	0.15000	0.00042
565.48000	0.15020	0.00034
565.52000	0.14501	0.00023
565.56000	0.14603	0.00033
565.60000	0.14435	0.00032
565.64000	0.13921	0.00036
565.68000	0.14445	0.00020
565.72000	0.13564	0.00048
565.76000	0.13590	0.00047
565.80000	0.13554	0.00023
565.84000	0.14211	0.00041
565.88000	0.14236	0.00042
565.92000	0.13666	0.00042
565.96000	0.13289	0.00041
566.00000	0.12994	0.00040
566.04000	0.13498	0.00041
566.08000	0.13483	0.00040
566.12000	0.12352	0.00058
566.16000	0.12627	0.00041
566.20000	0.12358	0.00050
566.24000	0.12612	0.00055
566.28000	0.11874	0.00023
566.32000	0.11874	0.00033
566.36000	0.11594	0.00050
566.40000	0.11599	0.00040
566.44000	0.10738	0.00034
566.48000	0.11421	0.00038
566.52000	0.10565	0.00056
566.56000	0.10744	0.00052
566.60000	0.11309	0.00041
566.64000	0.11400	0.00034
566.68000	0.11395	0.00033
566.72000	0.10621	0.00036
566.76000	0.10912	0.00031
566.80000	0.10728	0.00055
566.84000	0.10392	0.00034
566.88000	0.10408	0.00036
566.92000	0.10275	0.00040
566.96000	0.10290	0.00047
567.00000	0.10861	0.00031
567.04000	0.10453	0.00031
567.08000	0.10469	0.00042
567.12000	0.10352	0.00044
567.16000	0.10866	0.00042
567.20000	0.10723	0.00048
567.24000	0.10372	0.00038
567.28000	0.10357	0.00036
567.32000	0.10265	0.00042
567.36000	0.10474	0.00031
567.40000	0.10647	0.00034
567.44000	0.10397	0.00056
567.48000	0.10835	0.00046
567.52000	0.10728	0.00038
567.56000	0.10723	0.00048
567.60000	0.10565	0.00056
567.64000	0.10733	0.00046
567.68000	0.11222	0.00036
567.72000	0.11680	0.00036
567.76000	0.11782	0.00042
567.80000	0.12144	0.00032
567.84000	0.12021	0.00211
567.88000	0.11589	0.00048
567.92000	0.12643	0.00044
567.96000	0.11991	0.00051
568.00000	0.12174	0.00034
568.04000	0.13030	0.00052
568.08000	0.11497	0.00051
568.12000	0.12551	0.00060
568.16000	0.12536	0.00046
568.20000	0.12526	0.00041
568.24000	0.12149	0.00036
568.28000	0.13198	0.00040
568.32000	0.13355	0.00055
568.36000	0.13198	0.00046
568.40000	0.13198	0.00046
568.44000	0.13203	0.00044
568.48000	0.14425	0.00050
568.52000	0.13870	0.00027
568.56000	0.13574	0.00048
568.60000	0.13737	0.00033
568.64000	0.14053	0.00041
568.68000	0.14343	0.00044
568.72000	0.13381	0.00056
568.76000	0.13371	0.00042
568.80000	0.13585	0.00065
568.84000	0.13396	0.00041
568.88000	0.13493	0.00034
568.92000	0.13488	0.00034
568.96000	0.13279	0.00033
569.00000	0.12449	0.00051
569.04000	0.12459	0.00031
569.08000	0.13493	0.00041
569.12000	0.12551	0.00051
569.16000	0.12729	0.00061
569.20000	0.13014	0.00042
569.24000	0.11594	0.00031
569.28000	0.11456	0.00034
569.32000	0.11482	0.00032
569.36000	0.11767	0.00052
569.40000	0.11507	0.00041
569.44000	0.11614	0.00052
569.48000	0.11899	0.00020
569.52000	0.11212	0.00033
569.56000	0.10922	0.00023
569.60000	0.11039	0.00033
569.64000	0.11013	0.00038
569.68000	0.10891	0.00041
569.72000	0.10367	0.00027
569.76000	0.10178	0.00047
569.80000	0.10621	0.00027
569.84000	0.10173	0.00051
569.88000	0.10199	0.00031
569.92000	0.10189	0.00034
569.96000	0.10550	0.00051
570.00000	0.10922	0.00056
570.04000	0.10723	0.00036
570.08000	0.09715	0.00040
570.12000	0.10835	0.00046
570.16000	0.10830	0.00050
570.20000	0.09776	0.00047
570.24000	0.09771	0.00041
570.28000	0.10178	0.00052
570.32000	0.10260	0.00039
570.36000	0.10061	0.00036
570.40000	0.10265	0.00048
570.44000	0.10637	0.00047
570.48000	0.10738	0.00065
570.52000	0.10728	0.00031
570.56000	0.10474	0.00031
570.60000	0.10754	0.00046
570.64000	0.10850	0.00034
570.68000	0.10357	0.00036
570.72000	0.10642	0.00025
570.76000	0.10448	0.00033
570.80000	0.10458	0.00027
570.84000	0.10545	0.00047
570.88000	0.10820	0.00060
570.92000	0.10820	0.00023
570.96000	0.10912	0.00031
571.00000	0.10845	0.00047
571.04000	0.10932	0.00055
571.08000	0.11298	0.00041
571.12000	0.11329	0.00051
571.16000	0.11217	0.00038
571.20000	0.11416	0.00040
571.24000	0.11212	0.00033
571.28000	0.11477	0.00048
571.32000	0.11054	0.00047
571.36000	0.11298	0.00057
571.40000	0.11293	0.00040
571.44000	0.11405	0.00034
571.48000	0.11864	0.00025
571.52000	0.11884	0.00036
571.56000	0.11416	0.00051
571.60000	0.11624	0.00044
571.64000	0.11619	0.00033
571.68000	0.11614	0.00041
571.72000	0.11309	0.00041
571.76000	0.11105	0.00034
571.80000	0.11752	0.00040
571.84000	0.11100	0.00041
571.88000	0.11034	0.00044
571.92000	0.10815	0.00027
571.96000	0.11288	0.00044
572.00000	0.11319	0.00031
572.04000	0.10642	0.00047
572.08000	0.11482	0.00060
572.12000	0.11034	0.00044
572.16000	0.10733	0.00040
572.20000	0.10830	0.00038
572.24000	0.11018	0.00042
572.28000	0.11029	0.00053
572.32000	0.11293	0.00051
572.36000	0.11120	0.00042
572.40000	0.10917	0.00066
572.44000	0.10443	0.00034
572.48000	0.11008	0.00056
572.52000	0.10469	0.00036
572.56000	0.11008	0.00046
572.60000	0.11018	0.00036
572.64000	0.10662	0.00042
572.68000	0.11120	0.00036
572.72000	0.10458	0.00027
572.76000	0.09715	0.00033
572.80000	0.09842	0.00038
572.84000	0.10275	0.00056
572.88000	0.10270	0.00038
572.92000	0.10005	0.00032
572.96000	0.10922	0.00023
573.00000	0.10178	0.00034
573.04000	0.10469	0.00036
573.08000	0.10021	0.00033
573.12000	0.09903	0.00032
573.16000	0.09893	0.00050
573.20000	0.10474	0.00044
573.24000	0.09898	0.00058
573.28000	0.10183	0.00041
573.32000	0.10723	0.00036
573.36000	0.10667	0.00039
573.40000	0.10474	0.00031
573.44000	0.11090	0.00060
573.48000	0.11080	0.00027
573.52000	0.11197	0.00034
573.56000	0.10733	0.00040
573.60000	0.11599	0.00051
573.64000	0.11227	0.00039
573.68000	0.11008	0.00040
573.72000	0.11680	0.00036
573.76000	0.11685	0.00046
573.80000	0.11232	0.00042
573.84000	0.11573	0.00038
573.88000	0.11624	0.00031
573.92000	0.12174	0.00041
573.96000	0.12627	0.00057
574.00000	0.11864	0.00047
574.04000	0.11864	0.00061
574.08000	0.12638	0.00051
574.12000	0.12444	0.00048
574.16000	0.12541	0.00044
574.20000	0.12892	0.00040
574.24000	0.11889	0.00051
574.28000	0.12963	0.00042
574.32000	0.13366	0.00023
574.36000	0.13391	0.00052
574.40000	0.13203	0.00038
574.44000	0.13299	0.00033
574.48000	0.13493	0.00025
574.52000	0.12821	0.00046
574.56000	0.13656	0.00040
574.60000	0.13294	0.00034
574.64000	0.13284	0.00034
574.68000	0.13488	0.00041
574.72000	0.13931	0.00036
574.76000	0.12734	0.00041
574.80000	0.13024	0.00040
574.84000	0.12821	0.00040
574.88000	0.12164	0.00041
574.92000	0.12923	0.00040
574.96000	0.12902	0.00027
575.00000	0.13483	0.00040
575.04000	0.13289	0.00034
575.08000	0.13305	0.00031
575.12000	0.13676	0.00027
575.16000	0.13498	0.00025
575.20000	0.14119	0.00038
575.24000	0.14145	0.00033
575.28000	0.13681	0.00020
575.32000	0.13753	0.00034
575.36000	0.14257	0.00047
575.40000	0.14694	0.00015
575.44000	0.14328	0.00036
575.48000	0.14603	0.00023
575.52000	0.14613	0.00052
575.56000	0.15102	0.00042
575.60000	0.14796	0.00053
575.64000	0.16319	0.00032
575.68000	0.16512	0.00031
575.72000	0.16125	0.00038
575.76000	0.16594	0.00041
575.80000	0.16700	0.00047
575.84000	0.16706	0.00034
575.88000	0.16970	0.00038
575.92000	0.17602	0.00038
575.96000	0.18187	0.00033
576.00000	0.18844	0.00034
576.04000	0.18009	0.00044
576.08000	0.17541	0.00023
576.12000	0.17525	0.00040
576.16000	0.17892	0.00048
576.20000	0.17917	0.00041
576.24000	0.17902	0.00042
576.28000	0.17800	0.00036
576.32000	0.17525	0.00051
576.36000	0.16787	0.00031
576.40000	0.16945	0.00023
576.44000	0.16940	0.00038
576.48000	0.16395	0.00041
576.52000	0.15932	0.00025
576.56000	0.16308	0.00044
576.60000	0.15158	0.00038
576.64000	0.14974	0.00025
576.68000	0.14710	0.00041
576.72000	0.14710	0.00025
576.76000	0.14420	0.00040
576.80000	0.13966	0.00038
576.84000	0.13773	0.00051
576.88000	0.14043	0.00023
576.92000	0.12607	0.00042
576.96000	0.12719	0.00023
577.00000	0.12729	0.00034
577.04000	0.12541	0.00044
577.08000	0.12536	0.00051
577.12000	0.11670	0.00051
577.16000	0.11477	0.00027
577.20000	0.10922	0.00046
577.24000	0.10932	0.00031
577.28000	0.10372	0.00044
577.32000	0.10387	0.00034
577.36000	0.10097	0.00020
577.40000	0.10372	0.00044
577.44000	0.10336	0.00047
577.48000	0.10545	0.00052
577.52000	0.10830	0.00044
577.56000	0.10464	0.00023
577.60000	0.10464	0.00032
577.64000	0.10092	0.00023
577.68000	0.10458	0.00042
577.72000	0.10183	0.00041
577.76000	0.10942	0.00052
577.80000	0.10469	0.00036
577.84000	0.09985	0.00047
577.88000	0.10010	0.00036
577.92000	0.10570	0.00036
577.96000	0.10545	0.00047
578.00000	0.10285	0.00041
578.04000	0.09807	0.00048
578.08000	0.09802	0.00023
578.12000	0.10367	0.00027
578.16000	0.09868	0.00040
578.20000	0.09919	0.00033
578.24000	0.11018	0.00053
578.28000	0.10280	0.00034
578.32000	0.10626	0.00044
578.36000	0.10453	0.00055
578.40000	0.10392	0.00034
578.44000	0.10642	0.00057
578.48000	0.10642	0.00025
578.52000	0.10448	0.00023
578.56000	0.10285	0.00034
578.60000	0.10657	0.00038
578.64000	0.10372	0.00050
578.68000	0.10713	0.00066
578.72000	0.10077	0.00041
578.76000	0.09827	0.00025
578.80000	0.09812	0.00059
578.84000	0.10362	0.00039
578.88000	0.10199	0.00031
578.92000	0.10738	0.00034
578.96000	0.10657	0.00044
579.00000	0.10749	0.00057
579.04000	0.10810	0.00044
579.08000	0.10835	0.00040
579.12000	0.10285	0.00041
579.16000	0.10998	0.00052
579.20000	0.10550	0.00033
579.24000	0.11024	0.00051
579.28000	0.11120	0.00058
579.32000	0.11523	0.00044
579.36000	0.11502	0.00052
579.40000	0.11436	0.00036
579.44000	0.11304	0.00061
579.48000	0.11115	0.00038
579.52000	0.11110	0.00040
579.56000	0.11283	0.00048
579.60000	0.12057	0.00046
579.64000	0.11965	0.00041
579.68000	0.11981	0.00044
579.72000	0.11492	0.00044
579.76000	0.12164	0.00034
579.80000	0.12332	0.00033
579.84000	0.11874	0.00033
579.88000	0.12083	0.00038
579.92000	0.12067	0.00041
579.96000	0.12083	0.00038
580.00000	0.11563	0.00025
580.04000	0.12144	0.00023
580.08000	0.12536	0.00033
580.12000	0.12444	0.00027
580.16000	0.12164	0.00041
580.20000	0.12332	0.00051
580.24000	0.12352	0.00042
580.28000	0.12719	0.00040
580.32000	0.12459	0.00064
580.36000	0.12439	0.00031
580.40000	0.11894	0.00015
580.44000	0.13014	0.00042
580.48000	0.12510	0.00038
580.52000	0.12240	0.00048
580.56000	0.12251	0.00036
580.60000	0.13391	0.00052
580.64000	0.12989	0.00041
580.68000	0.13376	0.00044
580.72000	0.13926	0.00039
580.76000	0.14150	0.00034
580.80000	0.14145	0.00046
580.84000	0.14124	0.00048
580.88000	0.14063	0.00040
580.92000	0.13681	0.00031
580.96000	0.14353	0.00034
581.00000	0.14812	0.00034
581.04000	0.14964	0.00034
581.08000	0.14980	0.00023
581.12000	0.15244	0.00048
581.16000	0.15270	0.00025
581.20000	0.15850	0.00038
581.24000	0.16003	0.00044
581.28000	0.17062	0.00034
581.32000	0.16334	0.00033
581.36000	0.17154	0.00061
581.40000	0.17841	0.00042
581.44000	0.17821	0.00041
581.48000	0.17423	0.00046
581.52000	0.17719	0.00041
581.56000	0.18294	0.00050
581.60000	0.17327	0.00038
581.64000	0.17429	0.00044
581.68000	0.17815	0.00047
581.72000	0.17800	0.00036
581.76000	0.16940	0.00038
581.80000	0.17266	0.00041
581.84000	0.16629	0.00036
581.88000	0.16410	0.00038
581.92000	0.16706	0.00041
581.96000	0.15937	0.00034
582.00000	0.15764	0.00048
582.04000	0.15723	0.00040
582.08000	0.15937	0.00025
582.12000	0.15921	0.00050
582.16000	0.15458	0.00042
582.20000	0.15346	0.00036
582.24000	0.14608	0.00041
582.28000	0.14684	0.00027
582.32000	0.14710	0.00052
582.36000	0.13610	0.00044
582.40000	0.13961	0.00046
582.44000	0.13590	0.00057
582.48000	0.13091	0.00034
582.52000	0.13091	0.00025
582.56000	0.12699	0.00015
582.60000	0.12714	0.00050
582.64000	0.12047	0.00042
582.68000	0.11568	0.00033
582.72000	0.11207	0.00025
582.76000	0.11599	0.00056
582.80000	0.11197	0.00041
582.84000	0.10652	0.00040
582.88000	0.10947	0.00047
582.92000	0.10932	0.00031
582.96000	0.10850	0.00041
583.00000	0.10183	0.00052
583.04000	0.10474	0.00038
583.08000	0.10107	0.00039
583.12000	0.11400	0.00025
583.16000	0.10927	0.00036
583.20000	0.10932	0.00044
583.24000	0.10642	0.00041
583.28000	0.11029	0.00048
583.32000	0.10458	0.00042
583.36000	0.10453	0.00031
583.40000	0.10479	0.00023
583.44000	0.10387	0.00041
583.48000	0.10260	0.00032
583.52000	0.10280	0.00025
583.56000	0.10555	0.00038
583.60000	0.10453	0.00055
583.64000	0.10652	0.00046
583.68000	0.10545	0.00052
583.72000	0.10448	0.00046
583.76000	0.10270	0.00038
583.80000	0.10280	0.00041
583.84000	0.11202	0.00034
583.88000	0.10285	0.00047
583.92000	0.10759	0.00038
583.96000	0.10774	0.00036
584.00000	0.10749	0.00041
584.04000	0.11044	0.00034
584.08000	0.11034	0.00038
584.12000	0.11691	0.00027
584.16000	0.11512	0.00041
584.20000	0.11334	0.00027
584.24000	0.11563	0.00052
584.28000	0.11497	0.00046
584.32000	0.11772	0.00051
584.36000	0.11869	0.00034
584.40000	0.11884	0.00027
584.44000	0.12159	0.00040
584.48000	0.12358	0.00055
584.52000	0.12449	0.00032
584.56000	0.11772	0.00065
584.60000	0.12612	0.00075
584.64000	0.12515	0.00046
584.68000	0.12536	0.00033
584.72000	0.12800	0.00036
584.76000	0.13208	0.00027
584.80000	0.12240	0.00027
584.84000	0.12352	0.00053
584.88000	0.13187	0.00041
584.92000	0.13315	0.00032
584.96000	0.13371	0.00048
585.00000	0.13386	0.00052
585.04000	0.13014	0.00048
585.08000	0.13208	0.00048
585.12000	0.13091	0.00034
585.16000	0.12902	0.00027
585.20000	0.12363	0.00046
585.24000	0.12449	0.00000
585.28000	0.12434	0.00040
585.32000	0.12251	0.00027
585.36000	0.11874	0.00033
585.40000	0.12251	0.00036
585.44000	0.11685	0.00032
585.48000	0.11884	0.00027
585.52000	0.11314	0.00051
585.56000	0.11293	0.00040
585.60000	0.11772	0.00040
585.64000	0.11584	0.00051
585.68000	0.11879	0.00038
585.72000	0.11502	0.00041
585.76000	0.11976	0.00056
585.80000	0.10830	0.00044
585.84000	0.10718	0.00060
585.88000	0.10728	0.00044
585.92000	0.10835	0.00033
585.96000	0.11293	0.00033
586.00000	0.11293	0.00056
586.04000	0.11085	0.00055
586.08000	0.11034	0.00050
586.12000	0.11589	0.00048
586.16000	0.11604	0.00041
586.20000	0.11487	0.00053
586.24000	0.11859	0.00034
586.28000	0.12159	0.00046
586.32000	0.12225	0.00034
586.36000	0.12245	0.00023
586.40000	0.13213	0.00032
586.44000	0.13218	0.00042
586.48000	0.13305	0.00020
586.52000	0.13391	0.00047
586.56000	0.14048	0.00047
586.60000	0.13503	0.00033
586.64000	0.15641	0.00046
586.68000	0.14735	0.00042
586.72000	0.14705	0.00023
586.76000	0.14705	0.00040
586.80000	0.15448	0.00036
586.84000	0.16212	0.00053
586.88000	0.16003	0.00044
586.92000	0.16298	0.00041
586.96000	0.16232	0.00046
587.00000	0.16018	0.00042
587.04000	0.16044	0.00057
587.08000	0.17143	0.00038
587.12000	0.17159	0.00041
587.16000	0.16695	0.00052
587.20000	0.16879	0.00051
587.24000	0.16945	0.00023
587.28000	0.16904	0.00025
587.32000	0.16695	0.00052
587.36000	0.16700	0.00041
587.40000	0.16033	0.00041
587.44000	0.16003	0.00031
587.48000	0.15285	0.00046
587.52000	0.15733	0.00025
587.56000	0.15657	0.00046
587.60000	0.15652	0.00027
587.64000	0.15636	0.00025
587.68000	0.16380	0.00038
587.72000	0.14898	0.00048
587.76000	0.14302	0.00034
587.80000	0.14236	0.00053
587.84000	0.13564	0.00036
587.88000	0.12897	0.00038
587.92000	0.12907	0.00039
587.96000	0.13086	0.00025
588.00000	0.12093	0.00032
588.04000	0.12358	0.00050
588.08000	0.11787	0.00046
588.12000	0.11971	0.00041
588.16000	0.11971	0.00041
588.20000	0.11385	0.00053
588.24000	0.11395	0.00056
588.28000	0.11039	0.00056
588.32000	0.10912	0.00044
588.36000	0.10820	0.00046
588.40000	0.10453	0.00064
588.44000	0.11288	0.00038
588.48000	0.10820	0.00023
588.52000	0.10845	0.00034
588.56000	0.10514	0.00032
588.60000	0.10657	0.00038
588.64000	0.11120	0.00036
588.68000	0.10642	0.00025
588.72000	0.10830	0.00020
588.76000	0.10540	0.00041
588.80000	0.10540	0.00034
588.84000	0.10357	0.00036
588.88000	0.10906	0.00040
588.92000	0.10367	0.00036
588.96000	0.10922	0.00046
589.00000	0.11568	0.00033
589.04000	0.11701	0.00046
589.08000	0.11477	0.00036
589.12000	0.11492	0.00068
589.16000	0.11304	0.00052
589.20000	0.11889	0.00032
589.24000	0.12449	0.00032
589.28000	0.12347	0.00051
589.32000	0.12617	0.00040
589.36000	0.13096	0.00033
589.40000	0.13111	0.00051
589.44000	0.12719	0.00040
589.48000	0.12597	0.00053
589.52000	0.13218	0.00048
589.56000	0.13865	0.00038
589.60000	0.14231	0.00039
589.64000	0.14328	0.00042
589.68000	0.14511	0.00025
589.72000	0.14521	0.00033
589.76000	0.14430	0.00036
589.80000	0.14313	0.00034
589.84000	0.14862	0.00041
589.88000	0.15097	2.77556E-17
589.92000	0.15443	0.00038
589.96000	0.15937	0.00041
590.00000	0.15932	0.00041
590.04000	0.14694	0.00048
590.08000	0.14929	0.00040
590.12000	0.15850	0.00050
590.16000	0.15479	0.00041
590.20000	0.15428	0.00052
590.24000	0.16130	0.00033
590.28000	0.16115	0.00046
590.32000	0.14409	0.00052
590.36000	0.14195	0.00023
590.40000	0.14888	0.00036
590.44000	0.14812	0.00057
590.48000	0.15255	0.00058
590.52000	0.14588	0.00046
590.56000	0.14720	0.00047
590.60000	0.14730	0.00038
590.64000	0.14705	0.00046
590.68000	0.13941	0.00051
590.72000	0.15117	0.00047
590.76000	0.13854	0.00052
590.80000	0.13305	0.00038
590.84000	0.13915	0.00038
590.88000	0.13931	0.00048
590.92000	0.13666	0.00042
590.96000	0.13203	0.00044
591.00000	0.12750	0.00042
591.04000	0.12821	0.00040
591.08000	0.12444	0.00027
591.12000	0.12851	0.00036
591.16000	0.12938	0.00041
591.20000	0.12923	0.00040
591.24000	0.12256	0.00031
591.28000	0.13198	0.00040
591.32000	0.12251	0.00027
591.36000	0.11772	0.00046
591.40000	0.12164	0.00069
591.44000	0.12235	0.00031
591.48000	0.12271	0.00041
591.52000	0.11915	0.00025
591.56000	0.12444	0.00042
591.60000	0.11874	0.00040
591.64000	0.11889	0.00039
591.68000	0.11772	0.00051
591.72000	0.11614	0.00047
591.76000	0.11584	0.00056
591.80000	0.11130	0.00042
591.84000	0.11808	0.00047
591.88000	0.10830	0.00050
591.92000	0.11874	0.00033
591.96000	0.10448	0.00033
592.00000	0.10906	0.00023
592.04000	0.10942	0.00034
592.08000	0.10896	0.00041
592.12000	0.10932	0.00031
592.16000	0.10917	0.00036
592.20000	0.10749	0.00057
592.24000	0.10912	0.00059
592.28000	0.10662	0.00036
592.32000	0.10657	0.00038
592.36000	0.10652	0.00033
592.40000	0.10469	0.00048
592.44000	0.10550	0.00040
592.48000	0.10560	0.00048
592.52000	0.10469	0.00027
592.56000	0.10840	0.00034
592.60000	0.10759	0.00020
592.64000	0.10728	0.00031
592.68000	0.10738	0.00041
592.72000	0.10754	0.00046
592.76000	0.10377	0.00046
592.80000	0.10764	0.00036
592.84000	0.10932	0.00031
592.88000	0.10545	0.00041
592.92000	0.10835	0.00046
592.96000	0.10835	0.00040
593.00000	0.10738	0.00041
593.04000	0.10749	0.00047
593.08000	0.11003	0.00047
593.12000	0.11013	0.00059
593.16000	0.11400	0.00057
593.20000	0.11314	0.00040
593.24000	0.11309	0.00034
593.28000	0.10947	0.00041
593.32000	0.11573	0.00044
593.36000	0.11986	0.00042
593.40000	0.11421	0.00020
593.44000	0.11217	0.00038
593.48000	0.11197	0.00057
593.52000	0.11298	0.00047
593.56000	0.11293	0.00046
593.60000	0.11502	0.00052
593.64000	0.11115	0.00044
593.68000	0.11029	0.00027
593.72000	0.11217	0.00020
593.76000	0.11212	0.00033
593.80000	0.11304	0.00041
593.84000	0.11319	0.00031
593.88000	0.11955	0.00046
593.92000	0.11227	0.00039
593.96000	0.11502	0.00069
594.00000	0.11115	0.00031
594.04000	0.11039	0.00068
594.08000	0.11049	0.00034
594.12000	0.11039	0.00072
594.16000	0.11120	0.00036
594.20000	0.11217	0.00055
594.24000	0.11421	0.00031
594.28000	0.11136	0.00068
594.32000	0.11024	0.00046
594.36000	0.10850	0.00025
594.40000	0.10270	0.00031
594.44000	0.10301	0.00031
594.48000	0.10377	0.00040
594.52000	0.11120	0.00066
594.56000	0.10443	0.00025
594.60000	0.10453	0.00031
594.64000	0.10932	0.00044
594.68000	0.10942	0.00041
594.72000	0.10927	0.00036
594.76000	0.10652	0.00040
594.80000	0.10290	0.00025
594.84000	0.10764	0.00042
594.88000	0.10387	0.00034
594.92000	0.10540	0.00047
594.96000	0.11115	0.00038
595.00000	0.11130	0.00048
595.04000	0.10362	0.00039
595.08000	0.11024	0.00032
595.12000	0.10285	0.00041
595.16000	0.10550	0.00051
595.20000	0.11584	0.00039
595.24000	0.10835	0.00033
595.28000	0.10290	0.00041
595.32000	0.10285	0.00057
595.36000	0.10550	0.00065
595.40000	0.10489	0.00057
595.44000	0.11609	0.00047
595.48000	0.10942	0.00034
595.52000	0.11411	0.00025
595.56000	0.11670	0.00033
595.60000	0.11680	0.00042
595.64000	0.11507	0.00065
595.68000	0.11614	0.00034
595.72000	0.11416	0.00040
595.76000	0.11523	0.00055
595.80000	0.11614	0.00034
595.84000	0.11517	0.00023
595.88000	0.11792	0.00036
595.92000	0.11782	0.00042
595.96000	0.12067	0.00025
596.00000	0.11309	0.00041
596.04000	0.11604	0.00034
596.08000	0.11619	0.00040
596.12000	0.12256	0.00031
596.16000	0.12907	0.00032
596.20000	0.12918	0.00031
596.24000	0.11762	0.00047
596.28000	0.12744	0.00038
596.32000	0.13223	0.00050
596.36000	0.11685	0.00032
596.40000	0.12709	0.00036
596.44000	0.12729	0.00057
596.48000	0.12739	0.00040
596.52000	0.12454	0.00036
596.56000	0.12358	0.00038
596.60000	0.12363	0.00051
596.64000	0.12439	0.00038
596.68000	0.12337	0.00038
596.72000	0.13218	0.00027
596.76000	0.13014	0.00042
596.80000	0.12999	0.00031
596.84000	0.13498	0.00047
596.88000	0.13595	0.00041
596.92000	0.13493	0.00034
596.96000	0.13223	0.00064
597.00000	0.13406	0.00055
597.04000	0.13223	0.00038
597.08000	0.13203	0.00031
597.12000	0.13086	0.00034
597.16000	0.12923	0.00023
597.20000	0.13203	0.00020
597.24000	0.12062	0.00034
597.28000	0.13111	0.00039
597.32000	0.13753	0.00047
597.36000	0.12999	0.00038
597.40000	0.13035	0.00034
597.44000	0.12378	0.00034
597.48000	0.12612	0.00044
597.52000	0.12918	0.00059
597.56000	0.11981	0.00031
597.60000	0.12245	0.00056
597.64000	0.12724	0.00047
597.68000	0.12719	0.00046
597.72000	0.12342	0.00036
597.76000	0.13009	0.00046
597.80000	0.12429	0.00025
597.84000	0.12154	0.00031
597.88000	0.12327	0.00047
597.92000	0.12643	0.00059
597.96000	0.12643	0.00055
598.00000	0.11965	0.00034
598.04000	0.12627	0.00041
598.08000	0.11864	0.00041
598.12000	0.12358	0.00038
598.16000	0.11782	0.00058
598.20000	0.11889	0.00032
598.24000	0.13080	0.00034
598.28000	0.13116	0.00042
598.32000	0.12454	0.00048
598.36000	0.12251	0.00036
598.40000	0.11986	0.00042
598.44000	0.12531	0.00041
598.48000	0.12663	0.00038
598.52000	0.12256	0.00031
598.56000	0.12245	0.00023
598.60000	0.12800	0.00053
598.64000	0.12266	0.00047
598.68000	0.12724	0.00061
598.72000	0.12897	0.00020
598.76000	0.12067	0.00034
598.80000	0.11879	0.00031
598.84000	0.11874	0.00033
598.88000	0.11696	0.00038
598.92000	0.12093	0.00032
598.96000	0.11685	0.00046
599.00000	0.11604	0.00034
599.04000	0.11502	0.00041
599.08000	0.11502	0.00047
599.12000	0.12220	0.00041
599.16000	0.12271	0.00034
599.20000	0.11609	0.00025
599.24000	0.11680	0.00042
599.28000	0.11772	0.00040
599.32000	0.11492	0.00044
599.36000	0.10830	0.00055
599.40000	0.11136	0.00050
599.44000	0.11095	0.00047
599.48000	0.11120	0.00036
599.52000	0.11472	0.00038
599.56000	0.10581	0.00023
599.60000	0.11467	0.00033
599.64000	0.11115	0.00050
599.68000	0.11314	0.00040
599.72000	0.11212	0.00033
599.76000	0.11227	0.00056
599.80000	0.10448	0.00033
599.84000	0.10392	0.00041
599.88000	0.11609	0.00041
599.92000	0.10927	0.00036
599.96000	0.10621	0.00042
600.00000	0.10662	0.00042
600.04000	0.10632	0.00051
600.08000	0.10377	0.00040
600.12000	0.11034	0.00038
600.16000	0.10525	0.00038
600.20000	0.10550	0.00056
600.24000	0.10352	0.00038
600.28000	0.10545	0.00057
600.32000	0.10565	0.00051
600.36000	0.10199	0.00050
600.40000	0.10535	0.00047
600.44000	0.10657	0.00038
600.48000	0.10285	0.00041
600.52000	0.10382	0.00052
600.56000	0.10917	0.00036
600.60000	0.10458	0.00042
600.64000	0.10458	0.00036
600.68000	0.10733	0.00040
600.72000	0.10550	0.00051
600.76000	0.11018	0.00053
600.80000	0.10270	0.00050
600.84000	0.10168	0.00050
600.88000	0.09929	0.00052
600.92000	0.09914	0.00038
600.96000	0.09700	0.00032
601.00000	0.10158	0.00046
601.04000	0.10621	0.00048
601.08000	0.10469	0.00048
601.12000	0.10194	0.00040
601.16000	0.10469	0.00053
601.20000	0.10469	0.00042
601.24000	0.10525	0.00044
601.28000	0.10728	0.00038
601.32000	0.10199	0.00059
601.36000	0.10560	0.00053
601.40000	0.10759	0.00059
601.44000	0.10845	0.00041
601.48000	0.10265	0.00042
601.52000	0.10275	0.00046
601.56000	0.10545	0.00047
601.60000	0.11003	0.00047
601.64000	0.10754	0.00046
601.68000	0.10932	0.00031
601.72000	0.10657	0.00038
601.76000	0.10576	0.00038
601.80000	0.10550	0.00040
601.84000	0.10382	0.00025
601.88000	0.10545	0.00065
601.92000	0.10530	0.00040
601.96000	0.10626	0.00044
602.00000	0.10087	0.00025
602.04000	0.10453	0.00038
602.08000	0.10555	0.00044
602.12000	0.10581	0.00056
602.16000	0.10632	0.00033
602.20000	0.10341	0.00041
602.24000	0.10560	0.00053
602.28000	0.10632	0.00033
602.32000	0.10820	0.00032
602.36000	0.10183	0.00041
602.40000	0.10173	0.00051
602.44000	0.11207	0.00025
602.48000	0.11115	0.00038
602.52000	0.11105	0.00052
602.56000	0.11197	0.00041
602.60000	0.10759	0.00044
602.64000	0.11411	0.00047
602.68000	0.11380	0.00039
602.72000	0.10632	0.00033
602.76000	0.10453	0.00031
602.80000	0.10728	0.00044
602.84000	0.10906	0.00046
602.88000	0.11034	0.00038
602.92000	0.11202	0.00034
602.96000	0.10769	0.00032
603.00000	0.10749	0.00047
603.04000	0.10744	0.00034
603.08000	0.11120	0.00036
603.12000	0.10906	0.00051
603.16000	0.11008	0.00046
603.20000	0.11120	0.00036
603.24000	0.10560	0.00042
603.28000	0.10550	0.00033
603.32000	0.11416	0.00040
603.36000	0.11212	0.00046
603.40000	0.10738	0.00047
603.44000	0.11029	0.00048
603.48000	0.11685	0.00039
603.52000	0.10738	0.00041
603.56000	0.10744	0.00047
603.60000	0.11212	0.00040
603.64000	0.10733	0.00040
603.68000	0.11034	0.00031
603.72000	0.10448	0.00033
603.76000	0.10744	0.00065
603.80000	0.11202	0.00034
603.84000	0.10927	0.00036
603.88000	0.10906	0.00040
603.92000	0.10367	0.00036
603.96000	0.10744	0.00041
604.00000	0.11227	0.00039
604.04000	0.11405	0.00047
604.08000	0.11624	0.00044
604.12000	0.11309	0.00041
604.16000	0.11329	0.00051
604.20000	0.10718	0.00032
604.24000	0.10830	0.00038
604.28000	0.10535	0.00025
604.32000	0.11100	0.00052
604.36000	0.11049	0.00041
604.40000	0.11395	0.00051
604.44000	0.10448	0.00033
604.48000	0.10453	0.00038
604.52000	0.10662	0.00048
604.56000	0.10942	0.00041
604.60000	0.10733	0.00051
604.64000	0.11202	0.00034
604.68000	0.11411	0.00057
604.72000	0.10469	0.00027
604.76000	0.10438	0.00041
604.80000	0.11227	0.00032
604.84000	0.10066	0.00020
604.88000	0.10637	0.00057
604.92000	0.11105	0.00041
604.96000	0.11018	0.00048
605.00000	0.10469	0.00036
605.04000	0.10464	0.00039
605.08000	0.10087	0.00047
605.12000	0.10738	0.00034
605.16000	0.10825	0.00027
605.20000	0.10642	0.00025
605.24000	0.10820	0.00032
605.28000	0.10738	0.00041
605.32000	0.10453	0.00038
605.36000	0.10448	0.00040
605.40000	0.10733	0.00056
605.44000	0.10189	0.00057
605.48000	0.10708	0.00038
605.52000	0.10744	0.00034
605.56000	0.10560	0.00042
605.60000	0.10285	0.00041
605.64000	0.10301	0.00050
605.68000	0.10275	0.00051
605.72000	0.11115	0.00031
605.76000	0.10749	0.00047
605.80000	0.11492	0.00031
605.84000	0.10815	0.00027
605.88000	0.10464	0.00032
605.92000	0.10071	0.00051
605.96000	0.10082	0.00041
606.00000	0.11212	0.00051
606.04000	0.10448	0.00033
606.08000	0.10840	0.00041
606.12000	0.11792	0.00042
606.16000	0.10570	0.00053
606.20000	0.11772	0.00065
606.24000	0.11777	0.00059
606.28000	0.10840	0.00034
606.32000	0.10820	0.00039
606.36000	0.11787	0.00046
606.40000	0.11971	0.00052
606.44000	0.11497	0.00040
606.48000	0.11803	0.00060
606.52000	0.11777	0.00044
606.56000	0.11976	0.00046
606.60000	0.12077	0.00023
606.64000	0.12347	0.00032
606.68000	0.12515	0.00040
606.72000	0.13203	0.00031
606.76000	0.12816	0.00038
606.80000	0.12912	0.00036
606.84000	0.12928	0.00025
606.88000	0.12739	0.00033
606.92000	0.12734	0.00041
606.96000	0.12342	0.00036
607.00000	0.12724	0.00034
607.04000	0.13014	0.00048
607.08000	0.13294	0.00041
607.12000	0.13284	0.00052
607.16000	0.12627	0.00052
607.20000	0.12139	0.00015
607.24000	0.12816	0.00050
607.28000	0.12841	0.00056
607.32000	0.12149	0.00042
607.36000	0.12918	0.00031
607.40000	0.12923	0.00040
607.44000	0.12169	0.00041
607.48000	0.12159	0.00033
607.52000	0.11981	0.00055
607.56000	0.12077	0.00023
607.60000	0.11965	0.00047
607.64000	0.11792	0.00036
607.68000	0.11288	0.00038
607.72000	0.11293	0.00065
607.76000	0.11125	0.00051
607.80000	0.12088	0.00036
607.84000	0.11044	0.00025
607.88000	0.11599	0.00040
607.92000	0.10942	0.00041
607.96000	0.10550	0.00033
608.00000	0.10565	0.00039
608.04000	0.10723	0.00042
608.08000	0.10458	0.00036
608.12000	0.10458	0.00036
608.16000	0.10744	0.00047
608.20000	0.10835	0.00033
608.24000	0.10754	0.00056
608.28000	0.10173	0.00060
608.32000	0.10194	0.00046
608.36000	0.10906	0.00046
608.40000	0.10688	0.00034
608.44000	0.10820	0.00023
608.48000	0.11298	0.00057
608.52000	0.10912	0.00055
608.56000	0.10637	0.00025
608.60000	0.10642	0.00041
608.64000	0.11044	0.00034
608.68000	0.10733	0.00046
608.72000	0.10647	0.00041
608.76000	0.10448	0.00023
608.80000	0.11141	0.00040
608.84000	0.10749	0.00047
608.88000	0.10738	0.00061
608.92000	0.10163	0.00053
608.96000	0.10621	0.00048
609.00000	0.11192	0.00046
609.04000	0.10453	0.00044
609.08000	0.11395	0.00040
609.12000	0.10754	0.00046
609.16000	0.11716	0.00034
609.20000	0.11680	0.00036
609.24000	0.10555	0.00038
609.28000	0.11227	0.00032
609.32000	0.11411	0.00025
609.36000	0.11013	0.00050
609.40000	0.11024	0.00051
609.44000	0.11696	0.00038
609.48000	0.11680	0.00027
609.52000	0.10464	0.00051
609.56000	0.11115	0.00044
609.60000	0.10535	0.00034
609.64000	0.10718	0.00056
609.68000	0.10178	0.00041
609.72000	0.10652	0.00033
609.76000	0.10626	0.00038
609.80000	0.11202	0.00025
609.84000	0.10749	0.00052
609.88000	0.11298	0.00034
609.92000	0.10754	0.00046
609.96000	0.10148	0.00044
610.00000	0.10382	0.00041
610.04000	0.10830	0.00059
610.08000	0.10820	0.00032
610.12000	0.10626	0.00059
610.16000	0.11604	0.00041
610.20000	0.10387	0.00034
610.24000	0.10830	0.00038
610.28000	0.10306	0.00053
610.32000	0.10815	0.00042
610.36000	0.10835	0.00040
610.40000	0.10372	0.00044
610.44000	0.10367	0.00042
610.48000	0.10637	0.00025
610.52000	0.10560	0.00036
610.56000	0.10555	0.00050
610.60000	0.10840	0.00041
610.64000	0.10194	0.00033
610.68000	0.10173	0.00051
610.72000	0.10937	0.00040
610.76000	0.11024	0.00039
610.80000	0.10550	0.00040
610.84000	0.11034	0.00038
610.88000	0.11385	0.00048
610.92000	0.11497	0.00033
610.96000	0.11507	0.00052
611.00000	0.10830	0.00050
611.04000	0.11197	0.00041
611.08000	0.11594	0.00038
611.12000	0.11008	0.00046
611.16000	0.11034	0.00059
611.20000	0.11614	0.00057
611.24000	0.11619	0.00040
611.28000	0.12093	0.00039
611.32000	0.11991	0.00046
611.36000	0.11614	0.00041
611.40000	0.12536	0.00056
611.44000	0.11298	0.00061
611.48000	0.11685	0.00046
611.52000	0.11395	0.00033
611.56000	0.11395	0.00056
611.60000	0.11950	0.00050
611.64000	0.10988	0.00056
611.68000	0.11120	0.00048
611.72000	0.11874	0.00023
611.76000	0.11304	0.00041
611.80000	0.11604	0.00047
611.84000	0.11594	0.00038
611.88000	0.11024	0.00064
611.92000	0.11380	0.00039
611.96000	0.11787	0.00032
612.00000	0.11405	0.00034
612.04000	0.10912	0.00038
612.08000	0.10912	0.00055
612.12000	0.11385	0.00058
612.16000	0.11395	0.00046
612.20000	0.10275	0.00056
612.24000	0.11115	0.00031
612.28000	0.11008	0.00040
612.32000	0.11024	0.00046
612.36000	0.10550	0.00033
612.40000	0.10642	0.00034
612.44000	0.10621	0.00058
612.48000	0.11013	0.00044
612.52000	0.10545	0.00052
612.56000	0.10927	0.00053
612.60000	0.10667	0.00039
612.64000	0.10270	0.00038
612.68000	0.10469	0.00027
612.72000	0.10428	0.00040
612.76000	0.10662	0.00042
612.80000	0.10555	0.00055
612.84000	0.10759	0.00055
612.88000	0.10270	0.00038
612.92000	0.10840	0.00057
612.96000	0.10749	0.00052
613.00000	0.10657	0.00055
613.04000	0.10637	0.00034
613.08000	0.10367	0.00042
613.12000	0.10779	0.00020
613.16000	0.11146	0.00047
613.20000	0.10464	0.00032
613.24000	0.10632	0.00033
613.28000	0.10657	0.00050
613.32000	0.10657	0.00038
613.36000	0.10540	0.00034
613.40000	0.10550	0.00051
613.44000	0.10392	0.00034
613.48000	0.11298	0.00034
613.52000	0.10749	0.00047
613.56000	0.10199	0.00044
613.60000	0.10168	0.00038
613.64000	0.10626	0.00020
613.68000	0.11360	0.00057
613.72000	0.11115	0.00031
613.76000	0.10514	0.00039
613.80000	0.10754	0.00046
613.84000	0.10382	0.00057
613.88000	0.10448	0.00023
613.92000	0.10464	0.00032
613.96000	0.11018	0.00048
614.00000	0.10932	0.00038
614.04000	0.10540	0.00052
614.08000	0.11008	0.00040
614.12000	0.10652	0.00040
614.16000	0.11421	0.00038
614.20000	0.11411	0.00047
614.24000	0.10728	0.00038
614.28000	0.10901	0.00061
614.32000	0.10290	0.00025
614.36000	0.10917	0.00027
614.40000	0.10015	0.00044
614.44000	0.11024	0.00032
614.48000	0.10835	0.00023
614.52000	0.10800	0.00034
614.56000	0.10749	0.00047
614.60000	0.10810	0.00031
614.64000	0.10352	0.00055
614.68000	0.11283	0.00053
614.72000	0.10901	0.00052
614.76000	0.10749	0.00047
614.80000	0.10733	0.00033
614.84000	0.11136	0.00055
614.88000	0.10744	0.00073
614.92000	0.11049	0.00025
614.96000	0.10754	0.00046
615.00000	0.11497	0.00060
615.04000	0.10397	0.00033
615.08000	0.10367	0.00036
615.12000	0.10183	0.00041
615.16000	0.09893	0.00038
615.20000	0.10922	0.00039
615.24000	0.10937	0.00033
615.28000	0.11400	0.00047
615.32000	0.10922	0.00046
615.36000	0.10290	0.00047
615.40000	0.10285	0.00057
615.44000	0.11049	0.00041
615.48000	0.10377	0.00046
615.52000	0.10749	0.00041
615.56000	0.11304	0.00034
615.60000	0.10632	0.00065
615.64000	0.10443	0.00025
615.68000	0.10438	0.00034
615.72000	0.10173	0.00056
615.76000	0.10932	0.00031
615.80000	0.10825	0.00042
615.84000	0.10250	0.00038
615.88000	0.10759	0.00050
615.92000	0.10367	0.00048
615.96000	0.10331	0.00025
616.00000	0.10448	0.00023
616.04000	0.10000	0.00036
616.08000	0.10952	0.00057
616.12000	0.10275	0.00040
616.16000	0.11217	0.00031
616.20000	0.11095	0.00047
616.24000	0.10540	0.00052
616.28000	0.10570	0.00053
616.32000	0.10652	0.00040
616.36000	0.10606	0.00050
616.40000	0.11222	0.00042
616.44000	0.10835	0.00033
616.48000	0.10845	0.00025
616.52000	0.11136	0.00050
616.56000	0.11120	0.00042
616.60000	0.10912	0.00020
616.64000	0.10555	0.00044
616.68000	0.10642	0.00047
616.72000	0.10947	0.00041
616.76000	0.10077	0.00041
616.80000	0.11314	0.00046
616.84000	0.11049	0.00041
616.88000	0.11029	0.00042
616.92000	0.10647	0.00034
616.96000	0.11110	0.00040
617.00000	0.11115	0.00050
617.04000	0.10840	0.00025
617.08000	0.11492	0.00038
617.12000	0.11792	0.00042
617.16000	0.11782	0.00042
617.20000	0.11986	0.00042
617.24000	0.12454	0.00048
617.28000	0.12052	0.00031
617.32000	0.11573	0.00038
617.36000	0.11421	0.00020
617.40000	0.11777	0.00050
617.44000	0.11772	0.00046
617.48000	0.11869	0.00047
617.52000	0.12928	0.00041
617.56000	0.13559	0.00044
617.60000	0.13126	0.00046
617.64000	0.13213	0.00056
617.68000	0.13559	0.00055
617.72000	0.14608	0.00025
617.76000	0.14582	0.00027
617.80000	0.14980	0.00033
617.84000	0.15555	0.00039
617.88000	0.15911	0.00032
617.92000	0.15738	0.00025
617.96000	0.16609	0.00046
618.00000	0.16884	0.00036
618.04000	0.16884	0.00027
618.08000	0.17535	0.00062
618.12000	0.17556	0.00040
618.16000	0.17714	0.00025
618.20000	0.18650	0.00020
618.24000	0.18600	0.00031
618.28000	0.18381	0.00041
618.32000	0.18355	0.00056
618.36000	0.17429	0.00038
618.40000	0.18019	0.00061
618.44000	0.17815	0.00041
618.48000	0.18386	0.00047
618.52000	0.17887	0.00044
618.56000	0.18503	0.00036
618.60000	0.16894	0.00033
618.64000	0.16879	0.00046
618.68000	0.16782	0.00036
618.72000	0.16293	0.00041
618.76000	0.16599	0.00034
618.80000	0.15382	0.00034
618.84000	0.15188	0.00050
618.88000	0.14313	0.00034
618.92000	0.14328	0.00053
618.96000	0.13391	0.00047
619.00000	0.13946	0.00034
619.04000	0.13503	0.00046
619.08000	0.13503	0.00056
619.12000	0.12739	0.00056
619.16000	0.12164	0.00041
619.20000	0.11599	0.00033
619.24000	0.11584	0.00046
619.28000	0.11405	0.00034
619.32000	0.11487	0.00048
619.36000	0.10901	0.00034
619.40000	0.10901	0.00047
619.44000	0.11604	0.00041
619.48000	0.11044	0.00047
619.52000	0.11024	0.00039
619.56000	0.10565	0.00051
619.60000	0.10525	0.00038
619.64000	0.10932	0.00031
619.68000	0.10474	0.00044
619.72000	0.10850	0.00041
619.76000	0.10540	0.00047
619.80000	0.10525	0.00044
619.84000	0.10917	0.00048
619.88000	0.11003	0.00052
619.92000	0.10728	0.00050
619.96000	0.10560	0.00048
620.00000	0.10647	0.00025
620.04000	0.10632	0.00033
620.08000	0.11242	0.00033
620.12000	0.11232	0.00036
620.16000	0.11034	0.00050
620.20000	0.11309	0.00047
620.24000	0.11110	0.00040
620.28000	0.11024	0.00032
620.32000	0.11380	0.00039
620.36000	0.10815	0.00027
620.40000	0.10825	0.00036
620.44000	0.11293	0.00023
620.48000	0.10840	0.00041
620.52000	0.12057	0.00040
620.56000	0.11482	0.00039
620.60000	0.11309	0.00041
620.64000	0.11207	0.00034
620.68000	0.11889	0.00046
620.72000	0.11874	0.00023
620.76000	0.11329	0.00032
620.80000	0.11034	0.00038
620.84000	0.11563	0.00047
620.88000	0.12072	0.00025
620.92000	0.11512	0.00047
620.96000	0.12337	0.00050
621.00000	0.12332	0.00051
621.04000	0.11772	0.00046
621.08000	0.11792	0.00042
621.12000	0.11594	0.00038
621.16000	0.11614	0.00041
621.20000	0.12526	0.00025
621.24000	0.12154	0.00044
621.28000	0.12133	0.00038
621.32000	0.11685	0.00032
621.36000	0.11986	0.00036
621.40000	0.11981	0.00044
621.44000	0.12526	0.00041
621.48000	0.12429	0.00041
621.52000	0.12602	0.00039
621.56000	0.13101	0.00044
621.60000	0.13111	0.00032
621.64000	0.13182	0.00061
621.68000	0.13030	0.00041
621.72000	0.13951	0.00057
621.76000	0.14725	0.00051
621.80000	0.15346	0.00027
621.84000	0.14776	0.00046
621.88000	0.14822	0.00052
621.92000	0.14812	0.00034
621.96000	0.14521	0.00040
622.00000	0.15529	0.00034
622.04000	0.17128	0.00015
622.08000	0.17143	0.00031
622.12000	0.16502	0.00052
622.16000	0.16522	0.00051
622.20000	0.16700	0.00034
622.24000	0.16716	0.00031
622.28000	0.18202	0.00039
622.32000	0.17317	0.00041
622.36000	0.17551	0.00031
622.40000	0.17342	0.00036
622.44000	0.17235	0.00039
622.48000	0.17261	0.00052
622.52000	0.17042	0.00038
622.56000	0.17220	0.00033
622.60000	0.16874	0.00058
622.64000	0.15738	0.00025
622.68000	0.17352	0.00033
622.72000	0.16492	0.00034
622.76000	0.16492	0.00041
622.80000	0.16700	0.00041
622.84000	0.16033	0.00052
622.88000	0.15535	0.00052
622.92000	0.15453	0.00046
622.96000	0.15367	0.00023
623.00000	0.13936	0.00044
623.04000	0.14414	0.00052
623.08000	0.14414	0.00047
623.12000	0.12724	0.00052
623.16000	0.13386	0.00047
623.20000	0.12816	0.00038
623.24000	0.11675	0.00038
623.28000	0.12358	0.00038
623.32000	0.12245	0.00032
623.36000	0.12240	0.00058
623.40000	0.11981	0.00044
623.44000	0.11421	0.00031
623.48000	0.11685	0.00032
623.52000	0.11782	0.00027
623.56000	0.11619	0.00040
623.60000	0.11237	0.00020
623.64000	0.11202	0.00034
623.68000	0.11324	0.00053
623.72000	0.11691	0.00027
623.76000	0.11864	0.00047
623.80000	0.10759	0.00050
623.84000	0.11416	0.00046
623.88000	0.10540	0.00047
623.92000	0.10927	0.00036
623.96000	0.10917	0.00058
624.00000	0.10835	0.00040
624.04000	0.11517	0.00046
624.08000	0.11024	0.00023
624.12000	0.10469	0.00042
624.16000	0.10637	0.00025
624.20000	0.10759	0.00044
624.24000	0.10769	0.00032
624.28000	0.10545	0.00034
624.32000	0.11298	0.00025
624.36000	0.11090	0.00040
624.40000	0.11018	0.00036
624.44000	0.10744	0.00047
624.48000	0.11105	0.00034
624.52000	0.11115	0.00020
624.56000	0.11304	0.00057
624.60000	0.11110	0.00033
624.64000	0.10850	0.00047
624.68000	0.11207	0.00025
624.72000	0.11095	0.00041
624.76000	0.10835	0.00033
624.80000	0.10581	0.00051
624.84000	0.10576	0.00044
624.88000	0.11431	0.00051
624.92000	0.10835	0.00056
624.96000	0.11018	0.00053
625.00000	0.10540	0.00047
625.04000	0.10835	0.00040
625.08000	0.11324	0.00042
625.12000	0.11263	0.00033
625.16000	0.11232	0.00042
625.20000	0.10382	0.00025
625.24000	0.10540	0.00041
625.28000	0.10555	0.00068
625.32000	0.10616	0.00039
625.36000	0.10942	0.00034
625.40000	0.11202	0.00034
625.44000	0.11222	0.00036
625.48000	0.11390	0.00038
625.52000	0.11777	0.00059
625.56000	0.10820	0.00039
625.60000	0.11492	0.00050
625.64000	0.11472	0.00038
625.68000	0.11202	0.00025
625.72000	0.11217	0.00031
625.76000	0.10565	0.00039
625.80000	0.10845	0.00034
625.84000	0.10270	0.00044
625.88000	0.10464	0.00039
625.92000	0.10626	0.00020
625.96000	0.10820	0.00068
626.00000	0.10840	0.00034
626.04000	0.11217	0.00044
626.08000	0.10626	0.00044
626.12000	0.11217	0.00031
626.16000	0.10514	0.00032
626.20000	0.10942	0.00052
626.24000	0.10764	0.00036
626.28000	0.11029	0.00027
626.32000	0.11049	0.00025
626.36000	0.11202	0.00041
626.40000	0.11309	0.00047
626.44000	0.11013	0.00044
626.48000	0.10840	0.00034
626.52000	0.11273	0.00036
626.56000	0.11125	0.00046
626.60000	0.11125	0.00039
626.64000	0.11034	0.00050
626.68000	0.10657	0.00044
626.72000	0.10637	0.00025
626.76000	0.11467	0.00033
626.80000	0.11049	0.00025
626.84000	0.11003	0.00061
626.88000	0.11395	0.00040
626.92000	0.11400	0.00034
626.96000	0.11517	0.00033
627.00000	0.11467	0.00040
627.04000	0.11599	0.00040
627.08000	0.11680	0.00042
627.12000	0.11797	0.00050
627.16000	0.10912	0.00031
627.20000	0.10896	0.00041
627.24000	0.11115	0.00055
627.28000	0.11125	0.00039
627.32000	0.10183	0.00041
627.36000	0.12256	0.00031
627.40000	0.11884	0.00042
627.44000	0.11309	0.00034
627.48000	0.11324	0.00048
627.52000	0.11039	0.00023
627.56000	0.11492	0.00050
627.60000	0.11304	0.00052
627.64000	0.11207	0.00025
627.68000	0.11971	0.00047
627.72000	0.12088	0.00027
627.76000	0.12179	0.00051
627.80000	0.12164	0.00041
627.84000	0.11823	0.00040
627.88000	0.12062	0.00034
627.92000	0.12368	0.00057
627.96000	0.11691	0.00036
628.00000	0.11869	0.00034
628.04000	0.12215	0.00057
628.08000	0.12271	0.00041
628.12000	0.12047	0.00036
628.16000	0.13014	0.00036
628.20000	0.12999	0.00050
628.24000	0.13014	0.00036
628.28000	0.12653	0.00032
628.32000	0.12251	0.00036
628.36000	0.12230	0.00051
628.40000	0.13014	0.00042
628.44000	0.13391	0.00025
628.48000	0.13238	0.00025
628.52000	0.13564	0.00036
628.56000	0.13019	0.00038
628.60000	0.13009	0.00046
628.64000	0.13294	0.00034
628.68000	0.13305	0.00038
628.72000	0.13305	0.00038
628.76000	0.13208	0.00042
628.80000	0.12760	0.00048
628.84000	0.13121	0.00059
628.88000	0.13768	0.00036
628.92000	0.12714	0.00050
628.96000	0.12724	0.00052
629.00000	0.12169	0.00047
629.04000	0.12918	0.00044
629.08000	0.12337	0.00059
629.12000	0.11965	0.00052
629.16000	0.12816	0.00038
629.20000	0.12373	0.00047
629.24000	0.12500	0.00046
629.28000	0.12536	0.00040
629.32000	0.11792	0.00048
629.36000	0.12042	0.00039
629.40000	0.11894	0.00036
629.44000	0.12251	0.00036
629.48000	0.11517	0.00040
629.52000	0.10942	0.00057
629.56000	0.10917	0.00053
629.60000	0.11029	0.00027
629.64000	0.11293	0.00033
629.68000	0.10632	0.00023
629.72000	0.11202	0.00025
629.76000	0.10367	0.00036
629.80000	0.10275	0.00051
629.84000	0.10290	0.00061
629.88000	0.11222	0.00027
629.92000	0.11110	0.00033
629.96000	0.10596	0.00025
630.00000	0.10642	0.00034
630.04000	0.10474	0.00038
630.08000	0.10530	0.00033
630.12000	0.10749	0.00057
630.16000	0.10738	0.00025
630.20000	0.10458	0.00027
630.24000	0.09980	0.00041
630.28000	0.10647	0.00025
630.32000	0.10280	0.00057
630.36000	0.10815	0.00042
630.40000	0.10464	0.00039
630.44000	0.10469	0.00066
630.48000	0.10265	0.00042
630.52000	0.10647	0.00034
630.56000	0.10275	0.00040
630.60000	0.10270	0.00020
630.64000	0.10626	0.00031
630.68000	0.10275	0.00033
630.72000	0.10270	0.00031
630.76000	0.10647	0.00041
630.80000	0.10066	0.00031
630.84000	0.10015	0.00038
630.88000	0.10346	0.00051
630.92000	0.10657	0.00044
630.96000	0.10464	0.00032
631.00000	0.10479	0.00033
631.04000	0.10453	0.00050
631.08000	0.10616	0.00039
631.12000	0.10540	0.00047
631.16000	0.10560	0.00027
631.20000	0.10616	0.00023
631.24000	0.10805	0.00040
631.28000	0.11237	0.00020
631.32000	0.11212	0.00051
631.36000	0.12464	0.00033
631.40000	0.12836	0.00034
631.44000	0.12653	0.00039
631.48000	0.13753	0.00047
631.52000	0.13177	0.00046
631.56000	0.14048	0.00041
631.60000	0.14694	0.00048
631.64000	0.14684	0.00036
631.68000	0.14623	0.00040
631.72000	0.15682	0.00034
631.76000	0.16324	0.00042
631.80000	0.15947	0.00051
631.84000	0.17143	0.00044
631.88000	0.16792	0.00051
631.92000	0.16792	0.00040
631.96000	0.17357	0.00057
632.00000	0.18101	0.00032
632.04000	0.17739	0.00036
632.08000	0.18187	0.00033
632.12000	0.17989	0.00038
632.16000	0.18941	0.00025
632.20000	0.18961	0.00036
632.24000	0.19409	0.00046
632.28000	0.18936	0.00041
632.32000	0.19155	0.00046
632.36000	0.18406	0.00023
632.40000	0.18238	0.00033
632.44000	0.18019	0.00034
632.48000	0.17444	0.00042
632.52000	0.17418	0.00041
632.56000	0.17454	0.00040
632.60000	0.16695	0.00041
632.64000	0.17057	0.00034
632.68000	0.17530	0.00031
632.72000	0.16303	0.00040
632.76000	0.16140	0.00052
632.80000	0.16110	0.00048
632.84000	0.16303	0.00060
632.88000	0.14145	0.00033
632.92000	0.15463	0.00068
632.96000	0.14435	0.00039
633.00000	0.14338	0.00053
633.04000	0.14618	0.00041
633.08000	0.13019	0.00038
633.12000	0.13014	0.00048
633.16000	0.13101	0.00044
633.20000	0.12607	0.00036
633.24000	0.12729	0.00047
633.28000	0.13289	0.00034
633.32000	0.12434	0.00046
633.36000	0.12067	0.00041
633.40000	0.12072	0.00025
633.44000	0.12144	0.00039
633.48000	0.11426	0.00042
633.52000	0.11787	0.00056
633.56000	0.11034	0.00050
633.60000	0.11100	0.00041
633.64000	0.10550	0.00046
633.68000	0.10545	0.00034
633.72000	0.10443	0.00034
633.76000	0.10896	0.00025
633.80000	0.11008	0.00046
633.84000	0.10464	0.00023
633.88000	0.10071	0.00040
633.92000	0.10265	0.00027
633.96000	0.09822	0.00034
634.00000	0.09797	0.00042
634.04000	0.10387	0.00047
634.08000	0.11034	0.00031
634.12000	0.10194	0.00033
634.16000	0.10469	0.00036
634.20000	0.10352	0.00050
634.24000	0.09980	0.00034
634.28000	0.09990	0.00033
634.32000	0.10560	0.00042
634.36000	0.10738	0.00047
634.40000	0.10270	0.00044
634.44000	0.10082	0.00034
634.48000	0.10642	0.00034
634.52000	0.10749	0.00034
634.56000	0.10754	0.00051
634.60000	0.10540	0.00052
634.64000	0.10102	0.00036
634.68000	0.10158	0.00046
634.72000	0.10153	0.00042
634.76000	0.10647	0.00034
634.80000	0.10178	0.00047
634.84000	0.10652	0.00040
634.88000	0.10662	0.00042
634.92000	0.11319	0.00050
634.96000	0.10555	0.00050
