f(Hz),Ueff(V)
800,0.0017
820,0.0020
840,0.0020
860,0.0020
880,0.0030
900,0.0033
920,0.0040
940,0.0060
960,0.0090
980,0.0180
1000,0.0700
1020,0.0180
1040,0.0090
1060,0.0060
1080,0.0040
1100,0.0033
1120,0.0030
1140,0.0020
1160,0.0020
1180,0.0020
1200,0.0020