Raman-Spectrum _CCl4 _aspol001.dat
27/09/2021
11:37:54
_CCl4
_aspol0 Temp: NON
X in nm	Y Signal 	Error Signal				
625.04000	0.17632	0.00044
625.08000	0.17520	0.00041
625.12000	0.16706	0.00041
625.16000	0.16695	0.00069
625.20000	0.17551	0.00038
625.24000	0.16940	0.00038
625.28000	0.18752	0.00038
625.32000	0.18197	0.00036
625.36000	0.16884	0.00036
625.40000	0.17332	0.00027
625.44000	0.17444	0.00042
625.48000	0.17454	0.00051
625.52000	0.18192	0.00059
625.56000	0.16899	0.00041
625.60000	0.16614	0.00044
625.64000	0.17215	0.00047
625.68000	0.17042	0.00031
625.72000	0.17138	0.00027
625.76000	0.17149	0.00046
625.80000	0.16777	0.00032
625.84000	0.16777	0.00023
625.88000	0.16700	0.00047
625.92000	0.17123	0.00050
625.96000	0.16196	0.00061
626.00000	0.16767	0.00020
626.04000	0.16782	0.00036
626.08000	0.17052	0.00047
626.12000	0.15555	0.00046
626.16000	0.17327	0.00044
626.20000	0.17052	0.00057
626.24000	0.17332	0.00042
626.28000	0.17449	0.00044
626.32000	0.17154	0.00041
626.36000	0.17133	0.00032
626.40000	0.17815	0.00047
626.44000	0.16680	0.00048
626.48000	0.17042	0.00050
626.52000	0.16675	0.00046
626.56000	0.16507	0.00060
626.60000	0.16868	0.00038
626.64000	0.16879	0.00032
626.68000	0.17230	0.00036
626.72000	0.17556	0.00023
626.76000	0.17449	0.00031
626.80000	0.16507	0.00023
626.84000	0.17128	0.00036
626.88000	0.17520	0.00065
626.92000	0.17530	0.00055
626.96000	0.17143	0.00050
627.00000	0.17658	0.00040
627.04000	0.16431	0.00038
627.08000	0.16960	0.00034
627.12000	0.17739	0.00036
627.16000	0.17408	0.00034
627.20000	0.17576	0.00033
627.24000	0.17535	0.00036
627.28000	0.17434	0.00053
627.32000	0.17250	0.00056
627.36000	0.17133	0.00039
627.40000	0.17143	0.00050
627.44000	0.17062	0.00047
627.48000	0.16232	0.00046
627.52000	0.16207	0.00031
627.56000	0.17154	0.00052
627.60000	0.16919	0.00031
627.64000	0.17159	0.00034
627.68000	0.16588	0.00033
627.72000	0.16237	0.00041
627.76000	0.17230	0.00042
627.80000	0.16777	0.00032
627.84000	0.16767	0.00020
627.88000	0.16950	0.00025
627.92000	0.16970	0.00031
627.96000	0.17734	0.00044
628.00000	0.17541	0.00056
628.04000	0.16308	0.00044
628.08000	0.17164	0.00047
628.12000	0.17143	0.00055
628.16000	0.16772	0.00053
628.20000	0.16135	0.00041
628.24000	0.15998	0.00046
628.28000	0.16604	0.00034
628.32000	0.16135	0.00025
628.36000	0.16400	0.00061
628.40000	0.16420	0.00056
628.44000	0.15809	0.00056
628.48000	0.16609	0.00033
628.52000	0.15641	0.00046
628.56000	0.15367	0.00033
628.60000	0.14908	0.00033
628.64000	0.15927	0.00051
628.68000	0.14990	0.00036
628.72000	0.14974	0.00041
628.76000	0.14990	0.00036
628.80000	0.14430	0.00042
628.84000	0.14318	0.00056
628.88000	0.13859	0.00040
628.92000	0.13941	0.00046
628.96000	0.13386	0.00034
629.00000	0.13391	0.00041
629.04000	0.12724	0.00025
629.08000	0.13218	0.00042
629.12000	0.12358	0.00050
629.16000	0.12729	0.00034
629.20000	0.11696	0.00044
629.24000	0.11298	0.00057
629.28000	0.10830	0.00038
629.32000	0.10820	0.00023
629.36000	0.11782	0.00053
629.40000	0.10937	0.00033
629.44000	0.10937	0.00046
629.48000	0.10825	0.00027
629.52000	0.10530	0.00033
629.56000	0.10637	0.00025
629.60000	0.10647	0.00047
629.64000	0.09919	0.00040
629.68000	0.10097	0.00038
629.72000	0.10275	0.00023
629.76000	0.10642	0.00025
629.80000	0.09797	0.00042
629.84000	0.09909	0.00048
629.88000	0.09883	0.00047
629.92000	0.09914	0.00038
629.96000	0.09557	0.00038
630.00000	0.10458	0.00042
630.04000	0.09328	0.00033
630.08000	0.09323	0.00052
630.12000	0.09613	0.00033
630.16000	0.09674	0.00025
630.20000	0.09695	0.00042
630.24000	0.09618	0.00025
630.28000	0.09797	0.00042
630.32000	0.10183	0.00047
630.36000	0.09730	0.00047
630.40000	0.09603	0.00042
630.44000	0.09903	0.00039
630.48000	0.09888	0.00033
630.52000	0.09608	0.00038
630.56000	0.09878	0.00061
630.60000	0.09802	0.00072
630.64000	0.10092	0.00056
630.68000	0.09730	0.00041
630.72000	0.09705	0.00015
630.76000	0.09695	0.00048
630.80000	0.09328	0.00056
630.84000	0.09252	0.00044
630.88000	0.09399	0.00036
630.92000	0.09522	0.00057
630.96000	0.09328	0.00040
631.00000	0.09776	0.00034
631.04000	0.09236	0.00042
631.08000	0.09231	0.00050
631.12000	0.09807	0.00027
631.16000	0.09898	0.00042
631.20000	0.09710	0.00031
631.24000	0.09888	0.00040
631.28000	0.09333	0.00050
631.32000	0.10178	0.00025
631.36000	0.10163	0.00042
631.40000	0.10178	0.00061
631.44000	0.10555	0.00059
631.48000	0.10265	0.00036
631.52000	0.10061	0.00036
631.56000	0.10158	0.00046
631.60000	0.09893	0.00064
631.64000	0.09639	0.00031
631.68000	0.09603	0.00015
631.72000	0.10845	0.00025
631.76000	0.10453	0.00031
631.80000	0.10932	0.00044
631.84000	0.11202	0.00025
631.88000	0.11202	0.00025
631.92000	0.11125	0.00060
631.96000	0.11100	0.00025
632.00000	0.10530	0.00051
632.04000	0.11013	0.00038
632.08000	0.11584	0.00032
632.12000	0.11217	0.00038
632.16000	0.11115	0.00038
632.20000	0.11426	0.00015
632.24000	0.11431	0.00068
632.28000	0.11502	0.00061
632.32000	0.11334	0.00036
632.36000	0.10998	0.00047
632.40000	0.11767	0.00047
632.44000	0.12154	0.00044
632.48000	0.11380	0.00056
632.52000	0.12159	0.00056
632.56000	0.12174	0.00061
632.60000	0.11869	0.00025
632.64000	0.11675	0.00055
632.68000	0.11482	0.00039
632.72000	0.11782	0.00048
632.76000	0.11314	0.00033
632.80000	0.11614	0.00047
632.84000	0.11584	0.00051
632.88000	0.11293	0.00040
632.92000	0.11609	0.00047
632.96000	0.09791	0.00044
633.00000	0.10810	0.00038
633.04000	0.11298	0.00034
633.08000	0.10647	0.00034
633.12000	0.10637	0.00041
633.16000	0.10662	0.00036
633.20000	0.10448	0.00023
633.24000	0.10392	0.00034
633.28000	0.10071	0.00033
633.32000	0.10830	0.00038
633.36000	0.10301	0.00031
633.40000	0.10810	0.00031
633.44000	0.10820	0.00046
633.48000	0.10626	0.00059
633.52000	0.10377	0.00023
633.56000	0.09929	0.00047
633.60000	0.10005	0.00039
633.64000	0.09888	0.00023
633.68000	0.09695	0.00042
633.72000	0.09700	0.00039
633.76000	0.10372	0.00020
633.80000	0.09318	0.00025
633.84000	0.10010	0.00042
633.88000	0.09130	0.00044
633.92000	0.09420	0.00034
633.96000	0.09410	0.00033
634.00000	0.10021	0.00023
634.04000	0.10005	0.00023
634.08000	0.09685	0.00046
634.12000	0.09547	0.00039
634.16000	0.09827	0.00034
634.20000	0.09140	0.00046
634.24000	0.09405	0.00038
634.28000	0.09893	0.00050
634.32000	0.09934	0.00057
634.36000	0.09603	0.00027
634.40000	0.10071	0.00040
634.44000	0.09308	0.00046
634.48000	0.09593	0.00042
634.52000	0.09216	0.00061
634.56000	0.10194	0.00056
634.60000	0.10163	0.00036
634.64000	0.09685	0.00051
634.68000	0.09435	0.00044
634.72000	0.09608	0.00031
634.76000	0.09700	0.00023
634.80000	0.10000	0.00036
634.84000	0.10000	0.00027
634.88000	0.10087	0.00047
634.92000	0.10087	0.00047
634.96000	0.09328	0.00033
635.00000	0.09705	0.00048
635.04000	0.10051	0.00027
635.08000	0.09639	0.00050
635.12000	0.09323	0.00034
635.16000	0.09491	0.00036
635.20000	0.09496	0.00032
635.24000	0.09527	0.00041
635.28000	0.09812	0.00031
635.32000	0.09898	0.00048
635.36000	0.09710	0.00044
635.40000	0.09791	0.00055
635.44000	0.10005	0.00023
635.48000	0.09791	0.00031
635.52000	0.09791	0.00038
635.56000	0.10270	0.00031
635.60000	0.10372	0.00031
635.64000	0.09812	0.00044
635.68000	0.09338	0.00036
635.72000	0.09420	0.00041
635.76000	0.09323	0.00057
635.80000	0.09313	0.00057
635.84000	0.09608	0.00044
635.88000	0.10204	0.00048
635.92000	0.10010	0.00036
635.96000	0.09893	0.00044
636.00000	0.09430	0.00033
636.04000	0.09155	0.00033
636.08000	0.09119	0.00057
636.12000	0.09038	0.00068
636.16000	0.09410	0.00033
636.20000	0.09679	0.00047
636.24000	0.09618	0.00041
636.28000	0.09634	0.00033
636.32000	0.09715	0.00040
636.36000	0.10000	0.00048
636.40000	0.09995	0.00020
636.44000	0.09216	0.00047
636.48000	0.08773	0.00038
636.52000	0.09522	0.00052
636.56000	0.09629	0.00025
636.60000	0.09797	0.00042
636.64000	0.10204	0.00042
636.68000	0.10194	0.00040
636.72000	0.10010	0.00027
636.76000	0.09532	0.00046
636.80000	0.09888	0.00033
636.84000	0.08967	0.00041
636.88000	0.09720	0.00052
636.92000	0.09506	0.00044
636.96000	0.09496	0.00032
637.00000	0.10087	0.00025
637.04000	0.08946	0.00050
637.08000	0.09450	0.00036
637.12000	0.09298	0.00042
637.16000	0.10199	0.00050
637.20000	0.09038	0.00039
637.24000	0.10285	0.00052
637.28000	0.10245	0.00046
637.32000	0.09878	0.00034
637.36000	0.09812	0.00038
637.40000	0.09695	0.00048
637.44000	0.09527	0.00034
637.48000	0.09878	0.00025
637.52000	0.10087	0.00041
637.56000	0.10107	0.00039
637.60000	0.09797	0.00053
637.64000	0.09710	0.00055
637.68000	0.09328	0.00065
637.72000	0.10372	0.00044
637.76000	0.10082	0.00034
637.80000	0.09878	0.00041
637.84000	0.10545	0.00034
637.88000	0.10535	0.00047
637.92000	0.09888	0.00033
637.96000	0.09710	0.00055
638.00000	0.10087	0.00041
638.04000	0.10173	0.00056
638.08000	0.09690	0.00031
638.12000	0.09812	0.00038
638.16000	0.09797	0.00048
638.20000	0.10387	0.00052
638.24000	0.10626	0.00031
638.28000	0.09975	0.00052
638.32000	0.10738	0.00047
638.36000	0.10744	0.00047
638.40000	0.10642	0.00025
638.44000	0.10637	0.00025
638.48000	0.10362	0.00046
638.52000	0.11013	0.00044
638.56000	0.10922	0.00032
638.60000	0.11298	0.00047
638.64000	0.11202	0.00041
638.68000	0.11696	0.00031
638.72000	0.11492	0.00059
638.76000	0.11487	0.00042
638.80000	0.11599	0.00040
638.84000	0.11492	0.00044
638.88000	0.11421	0.00050
638.92000	0.12174	0.00052
638.96000	0.12444	0.00027
639.00000	0.12918	0.00031
639.04000	0.12907	0.00039
639.08000	0.13213	0.00039
639.12000	0.13213	0.00032
639.16000	0.13284	0.00041
639.20000	0.13177	0.00046
639.24000	0.13564	0.00027
639.28000	0.14231	0.00046
639.32000	0.14068	0.00044
639.36000	0.14033	0.00042
639.40000	0.14328	0.00036
639.44000	0.14043	0.00046
639.48000	0.14812	0.00047
639.52000	0.14343	0.00031
639.56000	0.16039	0.00041
639.60000	0.15723	0.00023
639.64000	0.15733	0.00034
639.68000	0.15458	0.00036
639.72000	0.16130	0.00046
639.76000	0.16507	0.00060
639.80000	0.16212	0.00062
639.84000	0.16889	0.00031
639.88000	0.16314	0.00036
639.92000	0.16298	0.00034
639.96000	0.16588	0.00023
640.00000	0.17072	0.00044
640.04000	0.18116	0.00060
640.08000	0.18182	0.00034
640.12000	0.18279	0.00041
640.16000	0.18014	0.00040
640.20000	0.19236	0.00046
640.24000	0.19231	0.00044
640.28000	0.18849	0.00040
640.32000	0.18869	0.00036
640.36000	0.19704	0.00052
640.40000	0.19511	0.00040
640.44000	0.20066	0.00057
640.48000	0.19903	0.00034
640.52000	0.19893	0.00044
640.56000	0.20152	0.00040
640.60000	0.21782	0.00033
640.64000	0.20463	0.00047
640.68000	0.21395	0.00023
640.72000	0.22118	0.00048
640.76000	0.22230	0.00036
640.80000	0.22235	0.00031
640.84000	0.23401	0.00058
640.88000	0.23553	0.00053
640.92000	0.24388	0.00034
640.96000	0.25733	0.00048
641.00000	0.27336	0.00052
641.04000	0.26695	0.00020
641.08000	0.28024	0.00036
641.12000	0.27973	0.00036
641.16000	0.28721	0.00034
641.20000	0.29678	0.00025
641.24000	0.30911	0.00047
641.28000	0.29409	0.00062
641.32000	0.29867	0.00048
641.36000	0.31211	0.00025
641.40000	0.31226	0.00038
641.44000	0.31206	0.00034
641.48000	0.29225	0.00034
641.52000	0.30524	0.00051
641.56000	0.31308	0.00034
641.60000	0.31639	0.00027
641.64000	0.30921	0.00038
641.68000	0.30060	0.00048
641.72000	0.30050	0.00040
641.76000	0.30340	0.00034
641.80000	0.30345	0.00041
641.84000	0.30829	0.00032
641.88000	0.28558	0.00034
641.92000	0.29139	0.00050
641.96000	0.27983	0.00042
642.00000	0.28014	0.00046
642.04000	0.27723	0.00023
642.08000	0.27708	0.00033
642.12000	0.25585	0.00046
642.16000	0.25717	0.00041
642.20000	0.25529	0.00042
642.24000	0.24709	0.00031
642.28000	0.24704	0.00051
642.32000	0.24414	0.00032
642.36000	0.24409	0.00042
642.40000	0.23762	0.00031
642.44000	0.22622	0.00031
642.48000	0.22067	0.00042
642.52000	0.20835	0.00033
642.56000	0.20550	0.00036
642.60000	0.20544	0.00032
642.64000	0.21502	0.00031
642.68000	0.21318	0.00038
642.72000	0.21293	0.00040
642.76000	0.20921	0.00047
642.80000	0.20183	0.00027
642.84000	0.20916	0.00046
642.88000	0.20926	0.00034
642.92000	0.20529	0.00051
642.96000	0.20534	0.00050
643.00000	0.20102	0.00051
643.04000	0.21232	0.00034
643.08000	0.19725	0.00048
643.12000	0.20178	0.00031
643.16000	0.19501	0.00034
643.20000	0.19536	0.00038
643.24000	0.19979	0.00048
643.28000	0.19536	0.00044
643.32000	0.19801	0.00041
643.36000	0.20453	0.00038
643.40000	0.20081	0.00048
643.44000	0.19699	0.00047
643.48000	0.19720	0.00044
643.52000	0.19903	0.00041
643.56000	0.19725	0.00036
643.60000	0.19068	0.00039
643.64000	0.20193	0.00027
643.68000	0.18584	0.00025
643.72000	0.19699	0.00052
643.76000	0.19725	0.00036
643.80000	0.19821	0.00031
643.84000	0.20234	0.00048
643.88000	0.19017	0.00039
643.92000	0.19811	0.00052
643.96000	0.20275	0.00033
644.00000	0.20056	0.00061
644.04000	0.20926	0.00047
644.08000	0.20931	0.00052
644.12000	0.20071	0.00040
644.16000	0.20005	0.00047
644.20000	0.20356	0.00040
644.24000	0.20443	0.00032
644.28000	0.20921	0.00047
644.32000	0.20631	0.00033
644.36000	0.20626	0.00025
644.40000	0.20580	0.00040
644.44000	0.20636	0.00031
644.48000	0.21084	0.00041
644.52000	0.22525	0.00053
644.56000	0.22352	0.00047
644.60000	0.22444	0.00046
644.64000	0.22433	0.00053
644.68000	0.21680	0.00046
644.72000	0.23467	0.00041
644.76000	0.24714	0.00042
644.80000	0.24119	0.00044
644.84000	0.24882	0.00044
644.88000	0.24882	0.00031
644.92000	0.26181	0.00046
644.96000	0.26242	0.00027
645.00000	0.27815	0.00050
645.04000	0.27143	0.00041
645.08000	0.26939	0.00025
645.12000	0.27224	0.00031
645.16000	0.28752	0.00038
645.20000	0.29699	0.00050
645.24000	0.29673	0.00040
645.28000	0.29297	0.00036
645.32000	0.31771	0.00034
645.36000	0.30651	0.00041
645.40000	0.30361	0.00020
645.44000	0.30641	0.00033
645.48000	0.31465	0.00047
645.52000	0.30651	0.00025
645.56000	0.30646	0.00047
645.60000	0.30916	0.00046
645.64000	0.31297	0.00020
645.68000	0.30834	0.00048
645.72000	0.30890	0.00059
645.76000	0.30732	0.00048
645.80000	0.29190	0.00038
645.84000	0.29195	0.00027
645.88000	0.30804	0.00025
645.92000	0.28645	0.00058
645.96000	0.28655	0.00046
646.00000	0.28655	0.00033
646.04000	0.28563	0.00041
646.08000	0.26970	0.00038
646.12000	0.26970	0.00044
646.16000	0.25544	0.00044
646.20000	0.26094	0.00046
646.24000	0.24383	0.00025
646.28000	0.24220	0.00038
646.32000	0.23085	0.00036
646.36000	0.23100	0.00038
646.40000	0.22057	0.00033
646.44000	0.22067	0.00053
646.48000	0.21792	0.00047
646.52000	0.21797	0.00047
646.56000	0.21105	0.00039
646.60000	0.21497	0.00023
646.64000	0.21140	0.00051
646.68000	0.19816	0.00033
646.72000	0.19806	0.00034
646.76000	0.20168	0.00025
646.80000	0.20183	0.00042
646.84000	0.19536	0.00038
646.88000	0.20010	0.00034
646.92000	0.19699	0.00034
646.96000	0.18650	0.00031
647.00000	0.18630	0.00025
647.04000	0.19424	0.00032
647.08000	0.20086	0.00039
647.12000	0.19155	0.00046
647.16000	0.18783	0.00047
647.20000	0.19521	0.00042
647.24000	0.19246	0.00025
647.28000	0.18401	0.00036
647.32000	0.18386	0.00047
647.36000	0.19526	0.00051
647.40000	0.19516	0.00038
647.44000	0.19613	0.00040
647.48000	0.19241	0.00034
647.52000	0.18493	0.00046
647.56000	0.19241	0.00052
647.60000	0.19236	0.00046
647.64000	0.18406	0.00056
647.68000	0.19134	0.00040
647.72000	0.18757	0.00027
647.76000	0.18508	0.00046
647.80000	0.18482	0.00047
647.84000	0.19241	0.00025
647.88000	0.17810	0.00046
647.92000	0.17810	0.00023
647.96000	0.18457	0.00039
648.00000	0.17826	0.00047
648.04000	0.18656	0.00036
648.08000	0.17841	0.00036
648.12000	0.18029	0.00052
648.16000	0.17541	0.00046
648.20000	0.17535	0.00048
648.24000	0.18752	0.00044
648.28000	0.19048	0.00025
648.32000	0.19323	0.00051
648.36000	0.18401	0.00048
648.40000	0.18482	0.00047
648.44000	0.18386	0.00034
648.48000	0.18396	0.00031
648.52000	0.18401	0.00036
648.56000	0.17912	0.00033
648.60000	0.19715	0.00051
648.64000	0.19221	0.00032
648.68000	0.18309	0.00062
648.72000	0.18488	0.00047
648.76000	0.19888	0.00036
648.80000	0.19883	0.00056
648.84000	0.18569	0.00050
648.88000	0.18126	0.00041
648.92000	0.18880	0.00040
648.96000	0.19053	0.00046
649.00000	0.18834	0.00052
649.04000	0.17734	0.00031
649.08000	0.17739	0.00015
649.12000	0.18279	0.00025
649.16000	0.18778	0.00033
649.20000	0.18299	0.00053
649.24000	0.18309	0.00058
649.28000	0.18966	0.00064
649.32000	0.17709	0.00023
649.36000	0.18757	0.00027
649.40000	0.18737	0.00047
649.44000	0.18386	0.00047
649.48000	0.18778	0.00040
649.52000	0.19032	0.00046
649.56000	0.18269	0.00046
649.60000	0.18752	0.00031
649.64000	0.19587	0.00050
649.68000	0.19618	0.00038
649.72000	0.18269	0.00023
649.76000	0.19806	0.00041
649.80000	0.18930	0.00033
649.84000	0.19027	0.00038
649.88000	0.19323	0.00039
649.92000	0.18376	0.00047
649.96000	0.18381	0.00034
650.00000	0.18569	0.00038
650.04000	0.19516	0.00038
650.08000	0.19058	0.00050
650.12000	0.18864	0.00039
650.16000	0.19735	0.00027
650.20000	0.18309	0.00042
650.24000	0.19618	0.00044
650.28000	0.19582	0.00036
650.32000	0.19251	0.00047
650.36000	0.19511	0.00051
650.40000	0.18951	0.00046
650.44000	0.20056	0.00025
650.48000	0.19419	0.00027
650.52000	0.19343	0.00052
650.56000	0.19312	0.00044
650.60000	0.19526	0.00039
650.64000	0.19053	0.00023
650.68000	0.19872	0.00044
650.72000	0.20117	0.00052
650.76000	0.20076	0.00038
650.80000	0.19872	0.00044
650.84000	0.19867	0.00040
650.88000	0.19597	0.00047
650.92000	0.21400	0.00044
650.96000	0.21013	0.00055
651.00000	0.21771	0.00015
651.04000	0.22036	0.00023
651.08000	0.21120	0.00040
651.12000	0.21497	0.00033
651.16000	0.21476	0.00023
651.20000	0.21201	0.00053
651.24000	0.22550	0.00047
651.28000	0.21975	0.00048
651.32000	0.22912	0.00047
651.36000	0.22484	0.00042
651.40000	0.21853	0.00040
651.44000	0.21858	0.00038
651.48000	0.22973	0.00051
651.52000	0.22057	0.00046
651.56000	0.23762	0.00050
651.60000	0.22530	0.00039
651.64000	0.21965	0.00048
651.68000	0.22886	0.00039
651.72000	0.22255	0.00034
651.76000	0.22225	0.00032
651.80000	0.22622	0.00050
651.84000	0.22362	0.00033
651.88000	0.22871	0.00046
651.92000	0.21863	0.00036
651.96000	0.21675	0.00031
652.00000	0.21797	0.00057
652.04000	0.21771	0.00027
652.08000	0.22143	0.00041
652.12000	0.21410	0.00032
652.16000	0.21115	0.00055
652.20000	0.20264	0.00025
652.24000	0.20748	0.00056
652.28000	0.20112	0.00041
652.32000	0.20117	0.00041
652.36000	0.19684	0.00027
652.40000	0.20015	0.00047
652.44000	0.18920	0.00042
652.48000	0.20076	0.00050
652.52000	0.19995	0.00038
652.56000	0.19424	0.00032
652.60000	0.18264	0.00031
652.64000	0.18269	0.00033
652.68000	0.19618	0.00031
652.72000	0.18304	0.00032
652.76000	0.18895	0.00047
652.80000	0.18202	0.00039
652.84000	0.18391	0.00060
652.88000	0.18849	0.00040
652.92000	0.18844	0.00034
652.96000	0.18752	0.00020
653.00000	0.17525	0.00040
653.04000	0.18391	0.00040
653.08000	0.18488	0.00052
653.12000	0.18650	0.00031
653.16000	0.18574	0.00033
653.20000	0.17663	0.00047
653.24000	0.17617	0.00034
653.28000	0.18961	0.00042
653.32000	0.18493	0.00051
653.36000	0.17989	0.00050
653.40000	0.18202	0.00039
653.44000	0.18946	0.00041
653.48000	0.18284	0.00047
653.52000	0.18284	0.00065
653.56000	0.17174	0.00050
653.60000	0.18961	0.00048
653.64000	0.17815	0.00041
653.68000	0.18569	0.00059
653.72000	0.17922	0.00041
653.76000	0.18503	0.00048
653.80000	0.18447	0.00038
653.84000	0.19231	0.00044
653.88000	0.18864	0.00046
653.92000	0.17154	0.00025
653.96000	0.18218	0.00056
654.00000	0.17810	0.00040
654.04000	0.17627	0.00051
654.08000	0.18564	0.00058
654.12000	0.18594	0.00040
654.16000	0.18116	0.00033
654.20000	0.17831	0.00033
654.24000	0.18859	0.00036
654.28000	0.18299	0.00036
654.32000	0.18208	0.00036
654.36000	0.18085	0.00040
654.40000	0.18106	0.00048
654.44000	0.18650	0.00055
654.48000	0.17714	0.00041
654.52000	0.18101	0.00039
654.56000	0.18284	0.00047
654.60000	0.18488	0.00041
654.64000	0.18192	0.00031
654.68000	0.18197	0.00027
654.72000	0.18202	0.00039
654.76000	0.17759	0.00040
654.80000	0.18218	0.00046
654.84000	0.19175	0.00036
654.88000	0.19058	0.00038
654.92000	0.18656	0.00036
654.96000	0.17983	0.00046
655.00000	0.17994	0.00036
655.04000	0.18564	0.00036
655.08000	0.18004	0.00036
655.12000	0.18274	0.00047
655.16000	0.17739	0.00036
655.20000	0.17922	0.00041
655.24000	0.17821	0.00047
655.28000	0.17795	0.00056
655.32000	0.18773	0.00031
655.36000	0.17250	0.00023
655.40000	0.18579	0.00047
655.44000	0.18956	0.00020
655.48000	0.17999	0.00032
655.52000	0.17215	0.00034
655.56000	0.17703	0.00050
655.60000	0.17719	0.00052
655.64000	0.17790	0.00053
655.68000	0.17622	0.00052
655.72000	0.17057	0.00047
655.76000	0.18019	0.00052
655.80000	0.17800	0.00048
655.84000	0.18014	0.00033
655.88000	0.17999	0.00046
655.92000	0.18681	0.00034
655.96000	0.17439	0.00064
656.00000	0.18656	0.00027
656.04000	0.18080	0.00061
656.08000	0.18213	0.00044
656.12000	0.17729	0.00023
656.16000	0.17698	0.00027
656.20000	0.17917	0.00052
656.24000	0.18488	0.00047
656.28000	0.18106	0.00048
656.32000	0.17535	0.00042
656.36000	0.17612	0.00041
656.40000	0.17408	0.00047
656.44000	0.17907	0.00044
656.48000	0.17907	0.00044
656.52000	0.17632	0.00038
656.56000	0.17627	0.00056
656.60000	0.17169	0.00056
656.64000	0.18859	0.00027
656.68000	0.18284	0.00052
656.72000	0.18014	0.00051
656.76000	0.17994	0.00058
656.80000	0.17744	0.00032
656.84000	0.17337	0.00032
656.88000	0.17709	0.00040
656.92000	0.17052	0.00041
656.96000	0.18320	0.00033
657.00000	0.18182	0.00034
657.04000	0.18096	0.00027
657.08000	0.18090	0.00055
657.12000	0.17815	0.00041
657.16000	0.17882	0.00040
657.20000	0.18574	0.00023
657.24000	0.17927	0.00041
657.28000	0.17831	0.00040
657.32000	0.18096	0.00027
657.36000	0.18116	0.00040
657.40000	0.17235	0.00032
657.44000	0.17744	0.00046
657.48000	0.17846	0.00039
657.52000	0.17423	0.00040
657.56000	0.17734	0.00038
657.60000	0.18391	0.00033
657.64000	0.18365	0.00038
657.68000	0.18004	0.00053
657.72000	0.17541	0.00032
657.76000	0.17444	0.00042
657.80000	0.17994	0.00036
657.84000	0.18569	0.00044
657.88000	0.17240	0.00048
657.92000	0.18264	0.00044
657.96000	0.18299	0.00053
658.00000	0.17327	0.00031
658.04000	0.17810	0.00051
658.08000	0.17999	0.00051
658.12000	0.17729	0.00033
658.16000	0.17434	0.00036
658.20000	0.17113	0.00025
658.24000	0.17143	0.00044
658.28000	0.17072	0.00044
658.32000	0.17810	0.00033
658.36000	0.17917	0.00034
658.40000	0.17031	0.00023
658.44000	0.17215	0.00034
658.48000	0.17841	0.00036
658.52000	0.17821	0.00025
658.56000	0.17551	0.00031
658.60000	0.17444	0.00036
658.64000	0.18381	0.00025
658.68000	0.18396	0.00050
658.72000	0.17235	0.00039
658.76000	0.18299	0.00053
658.80000	0.17907	0.00038
658.84000	0.17887	0.00050
658.88000	0.18258	0.00053
658.92000	0.18370	0.00046
658.96000	0.18009	0.00044
659.00000	0.17261	0.00041
659.04000	0.17622	0.00047
659.08000	0.17902	0.00048
659.12000	0.17917	0.00034
659.16000	0.17164	0.00034
659.20000	0.17357	0.00025
659.24000	0.18192	0.00020
659.28000	0.16960	0.00025
659.32000	0.17739	0.00036
659.36000	0.16975	0.00036
659.40000	0.17714	0.00041
659.44000	0.17739	0.00027
659.48000	0.17530	0.00038
659.52000	0.17072	0.00050
659.56000	0.17815	0.00047
659.60000	0.18386	0.00041
659.64000	0.17994	0.00042
659.68000	0.17999	0.00051
659.72000	0.17999	0.00039
659.76000	0.16385	0.00040
659.80000	0.18024	0.00047
659.84000	0.18116	0.00051
659.88000	0.17423	0.00023
659.92000	0.17062	0.00041
659.96000	0.17612	0.00025
660.00000	0.17622	0.00034
660.04000	0.17739	0.00027
660.08000	0.17413	0.00025
660.12000	0.17418	0.00034
660.16000	0.17042	0.00071
660.20000	0.17255	0.00052
660.24000	0.17031	0.00039
660.28000	0.17887	0.00044
660.32000	0.17917	0.00041
660.36000	0.17174	0.00038
660.40000	0.17912	0.00033
660.44000	0.17454	0.00056
660.48000	0.17887	0.00031
660.52000	0.17261	0.00047
660.56000	0.18116	0.00040
660.60000	0.18101	0.00051
660.64000	0.18946	0.00047
660.68000	0.17154	0.00047
660.72000	0.17143	0.00031
660.76000	0.17072	0.00038
660.80000	0.16685	0.00059
660.84000	0.16609	0.00060
660.88000	0.17444	0.00042
660.92000	0.17439	0.00023
660.96000	0.17729	0.00033
661.00000	0.17128	0.00042
661.04000	0.16140	0.00025
661.08000	0.17815	0.00047
661.12000	0.17927	0.00047
661.16000	0.16583	0.00020
661.20000	0.16604	0.00041
661.24000	0.17332	0.00015
661.28000	0.17826	0.00041
661.32000	0.17709	0.00033
661.36000	0.16578	0.00042
661.40000	0.17541	0.00023
661.44000	0.17434	0.00053
661.48000	0.17423	0.00040
661.52000	0.17637	0.00027
661.56000	0.17795	0.00051
661.60000	0.17714	0.00034
661.64000	0.17036	0.00015
661.68000	0.16879	0.00039
661.72000	0.17052	0.00041
661.76000	0.16879	0.00039
661.80000	0.16899	0.00034
661.84000	0.17123	0.00055
661.88000	0.17821	0.00047
661.92000	0.17632	0.00055
661.96000	0.17220	0.00033
662.00000	0.17250	0.00046
662.04000	0.18004	0.00042
662.08000	0.18014	0.00056
662.12000	0.17042	0.00031
662.16000	0.16151	0.00023
662.20000	0.17795	0.00039
662.24000	0.17739	0.00027
662.28000	0.17164	0.00034
662.32000	0.17149	0.00040
662.36000	0.17169	0.00051
662.40000	0.17342	0.00027
662.44000	0.16802	0.00052
662.48000	0.17994	0.00053
662.52000	0.17138	0.00048
662.56000	0.17846	0.00039
662.60000	0.17347	0.00031
662.64000	0.16955	0.00041
662.68000	0.16945	0.00023
662.72000	0.17627	0.00046
662.76000	0.17342	0.00042
662.80000	0.17882	0.00040
662.84000	0.17520	0.00041
662.88000	0.17744	0.00046
662.92000	0.17057	0.00034
662.96000	0.17057	0.00052
663.00000	0.17357	0.00025
663.04000	0.17556	0.00040
663.08000	0.17637	0.00015
663.12000	0.16212	0.00053
663.16000	0.17535	0.00048
663.20000	0.16955	0.00025
663.24000	0.17357	0.00025
663.28000	0.17347	0.00031
663.32000	0.17541	0.00023
663.36000	0.17994	0.00036
663.40000	0.18141	0.00031
663.44000	0.17632	0.00044
663.48000	0.18839	0.00047
663.52000	0.17235	0.00056
663.56000	0.17235	0.00032
663.60000	0.18116	0.00056
663.64000	0.17535	0.00027
663.68000	0.18106	0.00048
663.72000	0.18096	0.00053
663.76000	0.17627	0.00056
663.80000	0.17805	0.00038
663.84000	0.17815	0.00034
663.88000	0.17342	0.00027
663.92000	0.18386	0.00041
663.96000	0.17892	0.00053
664.00000	0.18600	0.00038
664.04000	0.18589	0.00047
664.08000	0.17927	0.00025
664.12000	0.18503	0.00062
664.16000	0.18467	0.00055
664.20000	0.18778	0.00023
664.24000	0.19699	0.00047
664.28000	0.19043	0.00034
664.32000	0.18752	0.00050
664.36000	0.19801	0.00061
664.40000	0.19888	0.00036
664.44000	0.19893	0.00044
664.48000	0.19053	0.00040
664.52000	0.19012	0.00036
664.56000	0.19796	0.00033
664.60000	0.18869	0.00062
664.64000	0.19333	0.00031
664.68000	0.18936	0.00034
664.72000	0.18645	0.00046
664.76000	0.18681	0.00057
664.80000	0.19511	0.00040
664.84000	0.19348	0.00034
664.88000	0.19597	0.00034
664.92000	0.19246	0.00047
664.96000	0.20550	0.00036
665.00000	0.19908	0.00057
665.04000	0.19913	0.00047
665.08000	0.19633	0.00058
665.12000	0.19883	0.00051
665.16000	0.19699	0.00057
665.20000	0.19485	0.00038
665.24000	0.19312	0.00050
665.28000	0.20560	0.00023
665.32000	0.20529	0.00051
665.36000	0.19124	0.00053
665.40000	0.19903	0.00047
665.44000	0.18498	0.00031
665.48000	0.18600	0.00038
665.52000	0.19221	0.00046
665.56000	0.18971	0.00027
665.60000	0.19155	0.00040
665.64000	0.19124	0.00027
665.68000	0.18864	0.00046
665.72000	0.19419	0.00042
665.76000	0.18854	0.00044
665.80000	0.19577	0.00039
665.84000	0.20366	0.00047
665.88000	0.18773	0.00031
665.92000	0.18757	0.00036
665.96000	0.19333	0.00038
666.00000	0.18956	0.00031
666.04000	0.19689	0.00044
666.08000	0.19165	0.00015
666.12000	0.18946	0.00052
666.16000	0.19048	0.00052
666.20000	0.19048	0.00025
666.24000	0.18666	0.00027
666.28000	0.18564	0.00036
666.32000	0.19333	0.00031
666.36000	0.18966	0.00023
666.40000	0.18589	0.00065
666.44000	0.19124	0.00042
666.48000	0.19165	0.00036
666.52000	0.19165	0.00042
666.56000	0.19058	0.00031
666.60000	0.17902	0.00036
666.64000	0.18569	0.00050
666.68000	0.19043	0.00047
666.72000	0.17159	0.00041
666.76000	0.18014	0.00033
666.80000	0.18004	0.00042
666.84000	0.17230	0.00042
666.88000	0.17897	0.00039
666.92000	0.17255	0.00034
666.96000	0.16899	0.00034
667.00000	0.17551	0.00038
667.04000	0.17647	0.00048
667.08000	0.17067	0.00040
667.12000	0.17036	0.00036
667.16000	0.17154	0.00047
667.20000	0.16965	0.00033
667.24000	0.17352	0.00051
667.28000	0.16670	0.00042
667.32000	0.17332	0.00042
667.36000	0.16181	0.00033
667.40000	0.16207	0.00044
667.44000	0.16751	0.00041
667.48000	0.16110	0.00048
667.52000	0.16293	0.00041
667.56000	0.17159	0.00041
667.60000	0.17067	0.00046
667.64000	0.16400	0.00034
667.68000	0.16405	0.00040
667.72000	0.16588	0.00060
667.76000	0.15825	0.00033
667.80000	0.17266	0.00041
667.84000	0.16120	0.00027
667.88000	0.16023	0.00044
667.92000	0.16130	0.00040
667.96000	0.15835	0.00034
668.00000	0.15860	0.00051
668.04000	0.16599	0.00034
668.08000	0.16191	0.00025
668.12000	0.16125	0.00038
668.16000	0.16420	0.00060
668.20000	0.16706	0.00047
668.24000	0.15845	0.00051
668.28000	0.15809	0.00046
668.32000	0.16023	0.00050
668.36000	0.15647	0.00044
668.40000	0.15728	0.00034
668.44000	0.15071	0.00041
668.48000	0.16767	0.00044
668.52000	0.15850	0.00050
668.56000	0.15463	0.00031
668.60000	0.15458	0.00048
668.64000	0.15550	0.00048
668.68000	0.16125	0.00020
668.72000	0.17261	0.00047
668.76000	0.15825	0.00046
668.80000	0.16685	0.00031
668.84000	0.15652	0.00042
668.88000	0.15641	0.00051
668.92000	0.15188	0.00071
668.96000	0.16507	0.00046
669.00000	0.15815	0.00036
669.04000	0.15458	0.00036
669.08000	0.15947	0.00040
669.12000	0.15860	0.00056
669.16000	0.15840	0.00041
669.20000	0.16033	0.00047
669.24000	0.16329	0.00038
669.28000	0.15438	0.00065
669.32000	0.15825	0.00023
669.36000	0.15916	0.00042
669.40000	0.15636	0.00052
669.44000	0.15443	0.00059
669.48000	0.15463	0.00038
669.52000	0.15010	0.00040
669.56000	0.15916	0.00036
669.60000	0.14506	0.00057
669.64000	0.15285	0.00033
669.68000	0.15682	0.00025
669.72000	0.16130	0.00040
669.76000	0.16105	0.00059
669.80000	0.15932	0.00025
669.84000	0.16298	0.00047
669.88000	0.16390	0.00034
669.92000	0.15652	0.00036
669.96000	0.14613	0.00041
670.00000	0.15336	0.00033
670.04000	0.15367	0.00040
670.08000	0.15647	0.00038
670.12000	0.15097	0.00039
670.16000	0.15733	0.00034
670.20000	0.15265	0.00040
670.24000	0.15290	0.00038
670.28000	0.15550	0.00042
670.32000	0.16023	0.00050
670.36000	0.16033	0.00041
670.40000	0.16023	0.00055
670.44000	0.15076	0.00052
670.48000	0.16303	0.00051
670.52000	0.15361	0.00038
670.56000	0.15830	0.00052
670.60000	0.14980	0.00033
670.64000	0.14974	0.00041
670.68000	0.15738	0.00052
670.72000	0.15367	0.00046
670.76000	0.15255	0.00036
670.80000	0.14868	0.00025
670.84000	0.16298	0.00041
670.88000	0.15097	0.00051
670.92000	0.15086	0.00050
670.96000	0.15071	0.00041
671.00000	0.16110	0.00027
671.04000	0.15351	0.00039
671.08000	0.15718	0.00031
671.12000	0.16502	0.00041
671.16000	0.15372	0.00025
671.20000	0.14985	0.00050
671.24000	0.14990	0.00042
671.28000	0.16298	0.00047
671.32000	0.15193	0.00036
671.36000	0.15361	0.00050
671.40000	0.15942	0.00025
671.44000	0.15540	0.00046
671.48000	0.16212	0.00048
671.52000	0.16237	0.00041
671.56000	0.15214	0.00046
671.60000	0.15005	0.00038
671.64000	0.15540	0.00040
671.68000	0.15626	0.00047
671.72000	0.15356	0.00027
671.76000	0.15372	0.00041
671.80000	0.15947	0.00033
671.84000	0.15937	0.00034
671.88000	0.15652	0.00048
671.92000	0.15443	0.00031
671.96000	0.16191	0.00034
672.00000	0.15097	0.00046
672.04000	0.15086	0.00020
672.08000	0.15102	0.00036
672.12000	0.15061	0.00033
672.16000	0.14445	0.00044
672.20000	0.14980	0.00033
672.24000	0.15570	0.00046
672.28000	0.15285	0.00033
672.32000	0.15718	0.00038
672.36000	0.15275	0.00041
672.40000	0.16023	0.00059
672.44000	0.16023	0.00044
672.48000	0.15346	0.00036
672.52000	0.15825	0.00040
672.56000	0.15504	0.00023
672.60000	0.14929	0.00040
672.64000	0.14766	0.00057
672.68000	0.15860	0.00046
672.72000	0.15845	0.00033
672.76000	0.15443	0.00031
672.80000	0.15199	0.00056
672.84000	0.15346	0.00042
672.88000	0.14980	0.00060
672.92000	0.15473	0.00041
672.96000	0.15560	0.00027
673.00000	0.15540	0.00056
673.04000	0.14954	0.00031
673.08000	0.15346	0.00042
673.12000	0.15295	0.00042
673.16000	0.15453	0.00039
673.20000	0.15733	0.00041
673.24000	0.15927	0.00023
673.28000	0.15086	0.00050
673.32000	0.15061	0.00033
673.36000	0.15733	0.00025
673.40000	0.15377	0.00034
673.44000	0.14980	0.00046
673.48000	0.15071	0.00061
673.52000	0.14990	0.00042
673.56000	0.14216	0.00040
673.60000	0.14206	0.00041
673.64000	0.14995	0.00039
673.68000	0.15173	0.00034
673.72000	0.15636	0.00041
673.76000	0.14430	0.00042
673.80000	0.14990	0.00042
673.84000	0.15219	0.00041
673.88000	0.15173	0.00025
673.92000	0.14974	0.00041
673.96000	0.15290	0.00055
674.00000	0.15448	0.00042
674.04000	0.14593	0.00048
674.08000	0.15545	0.00031
674.12000	0.14893	0.00051
674.16000	0.14791	0.00039
674.20000	0.14806	0.00040
674.24000	0.14705	0.00033
674.28000	0.15076	0.00052
674.32000	0.14720	0.00034
674.36000	0.15840	0.00034
674.40000	0.14898	0.00027
674.44000	0.15183	0.00051
674.48000	0.15173	0.00025
674.52000	0.14516	0.00034
674.56000	0.15280	0.00041
674.60000	0.15346	0.00036
674.64000	0.15657	0.00039
674.68000	0.15183	0.00040
674.72000	0.14435	0.00032
674.76000	0.14980	0.00033
674.80000	0.14964	0.00025
674.84000	0.15336	0.00051
674.88000	0.14705	0.00040
674.92000	0.15071	0.00041
674.96000	0.14430	0.00036
