Raman-Spectrum _CDCl3 _pol0r01.dat
27/09/2021
10:17:34
_CDCl3
_pol0r Temp: NON
X in nm	Y Signal 	Error Signal				
625,04000	0,09058	0,00052
625,08000	0,08478	0,00039
625,12000	0,08768	0,00023
625,16000	0,08575	0,00042
625,20000	0,08656	0,00041
625,24000	0,08676	0,00062
625,28000	0,09226	0,00040
625,32000	0,08656	0,00034
625,36000	0,08391	0,00023
625,40000	0,08585	0,00036
625,44000	0,08519	0,00044
625,48000	0,08325	0,00032
625,52000	0,08300	0,00047
625,56000	0,08676	0,00048
625,60000	0,09043	0,00036
625,64000	0,08458	0,00052
625,68000	0,08921	0,00040
625,72000	0,08575	0,00036
625,76000	0,08671	0,00044
625,80000	0,07999	0,00041
625,84000	0,07999	0,00041
625,88000	0,08442	0,00040
625,92000	0,08768	0,00040
625,96000	0,08514	0,00051
626,00000	0,08030	0,00038
626,04000	0,08473	0,00036
626,08000	0,08580	0,00056
626,12000	0,08595	0,00033
626,16000	0,08855	0,00047
626,20000	0,08488	0,00059
626,24000	0,08177	0,00042
626,28000	0,08295	0,00057
626,32000	0,08758	0,00041
626,36000	0,08676	0,00048
626,40000	0,08676	0,00062
626,44000	0,09247	0,00027
626,48000	0,08564	0,00033
626,52000	0,08850	0,00051
626,56000	0,08493	0,00040
626,60000	0,08661	0,00052
626,64000	0,09068	0,00041
626,68000	0,09063	0,00041
626,72000	0,09033	0,00036
626,76000	0,08458	0,00025
626,80000	0,08829	0,00027
626,84000	0,08743	0,00044
626,88000	0,08936	0,00039
626,92000	0,09420	0,00025
626,96000	0,09038	0,00046
627,00000	0,09053	0,00056
627,04000	0,08844	0,00044
627,08000	0,08687	0,00053
627,12000	0,09058	0,00041
627,16000	0,08687	0,00042
627,20000	0,08844	0,00038
627,24000	0,09221	0,00025
627,28000	0,09236	0,00042
627,32000	0,08753	0,00034
627,36000	0,09033	0,00048
627,40000	0,08860	0,00041
627,44000	0,09119	0,00061
627,48000	0,09333	0,00055
627,52000	0,09236	0,00036
627,56000	0,09058	0,00052
627,60000	0,09074	0,00056
627,64000	0,09425	0,00034
627,68000	0,09160	0,00034
627,72000	0,09639	0,00031
627,76000	0,09399	0,00036
627,80000	0,09231	0,00050
627,84000	0,10015	0,00031
627,88000	0,09985	0,00041
627,92000	0,09517	0,00047
627,96000	0,09496	0,00056
628,00000	0,09333	0,00050
628,04000	0,09257	0,00033
628,08000	0,09924	0,00034
628,12000	0,09461	0,00040
628,16000	0,09995	0,00050
628,20000	0,09995	0,00031
628,24000	0,10158	0,00046
628,28000	0,09919	0,00046
628,32000	0,09608	0,00031
628,36000	0,09618	0,00025
628,40000	0,09634	0,00051
628,44000	0,10290	0,00025
628,48000	0,10321	0,00059
628,52000	0,10280	0,00034
628,56000	0,10178	0,00025
628,60000	0,10275	0,00046
628,64000	0,09817	0,00040
628,68000	0,09715	0,00033
628,72000	0,09995	0,00031
628,76000	0,10010	0,00027
628,80000	0,09710	0,00055
628,84000	0,09797	0,00015
628,88000	0,09608	0,00020
628,92000	0,09359	0,00040
628,96000	0,09608	0,00038
629,00000	0,09608	0,00044
629,04000	0,09410	0,00023
629,08000	0,09415	0,00034
629,12000	0,09242	0,00051
629,16000	0,09705	0,00042
629,20000	0,09629	0,00057
629,24000	0,09155	0,00046
629,28000	0,09410	0,00023
629,32000	0,09822	0,00041
629,36000	0,09807	0,00053
629,40000	0,09328	0,00040
629,44000	0,09058	0,00057
629,48000	0,08590	0,00038
629,52000	0,09165	0,00025
629,56000	0,08844	0,00031
629,60000	0,08580	0,00056
629,64000	0,08595	0,00056
629,68000	0,08768	0,00033
629,72000	0,08946	0,00038
629,76000	0,08590	0,00038
629,80000	0,08590	0,00038
629,84000	0,08412	0,00060
629,88000	0,08575	0,00036
629,92000	0,08468	0,00038
629,96000	0,08478	0,00032
630,00000	0,08590	0,00055
630,04000	0,08850	0,00040
630,08000	0,08666	0,00040
630,12000	0,08295	0,00041
630,16000	0,08687	0,00053
630,20000	0,08687	0,00036
630,24000	0,08666	0,00040
630,28000	0,08860	0,00041
630,32000	0,08289	0,00040
630,36000	0,08009	0,00031
630,40000	0,08289	0,00046
630,44000	0,08656	0,00025
630,48000	0,08972	0,00040
630,52000	0,07877	0,00038
630,56000	0,07897	0,00052
630,60000	0,08514	0,00046
630,64000	0,08488	0,00050
630,68000	0,08676	0,00058
630,72000	0,08478	0,00032
630,76000	0,07831	0,00023
630,80000	0,08687	0,00053
630,84000	0,08651	0,00034
630,88000	0,08264	0,00064
630,92000	0,08855	0,00034
630,96000	0,08575	0,00048
631,00000	0,08177	0,00053
631,04000	0,09145	0,00036
631,08000	0,08289	0,00060
631,12000	0,08300	0,00041
631,16000	0,08106	0,00033
631,20000	0,08773	0,00031
631,24000	0,08697	0,00033
631,28000	0,08381	0,00036
631,32000	0,08605	0,00034
631,36000	0,09043	0,00036
631,40000	0,09150	0,00044
631,44000	0,09150	0,00044
631,48000	0,08564	0,00040
631,52000	0,09527	0,00052
631,56000	0,08564	0,00051
631,60000	0,09140	0,00039
631,64000	0,08941	0,00036
631,68000	0,09501	0,00027
631,72000	0,09532	0,00033
631,76000	0,09348	0,00053
631,80000	0,09613	0,00046
631,84000	0,09914	0,00044
631,88000	0,09425	0,00052
631,92000	0,09155	0,00040
631,96000	0,10469	0,00036
632,00000	0,10448	0,00046
632,04000	0,10749	0,00034
632,08000	0,10362	0,00039
632,12000	0,10178	0,00041
632,16000	0,10545	0,00034
632,20000	0,10082	0,00041
632,24000	0,10759	0,00031
632,28000	0,10942	0,00041
632,32000	0,10917	0,00048
632,36000	0,10377	0,00046
632,40000	0,10632	0,00023
632,44000	0,10733	0,00046
632,48000	0,10932	0,00044
632,52000	0,10576	0,00038
632,56000	0,10957	0,00023
632,60000	0,10927	0,00042
632,64000	0,10565	0,00051
632,68000	0,10830	0,00031
632,72000	0,10937	0,00046
632,76000	0,09888	0,00040
632,80000	0,10565	0,00056
632,84000	0,10652	0,00033
632,88000	0,09425	0,00061
632,92000	0,09420	0,00052
632,96000	0,10352	0,00031
633,00000	0,10087	0,00025
633,04000	0,09980	0,00047
633,08000	0,09685	0,00051
633,12000	0,09980	0,00025
633,16000	0,09919	0,00060
633,20000	0,09888	0,00056
633,24000	0,09410	0,00033
633,28000	0,09822	0,00041
633,32000	0,09155	0,00040
633,36000	0,09435	0,00020
633,40000	0,09236	0,00053
633,44000	0,08687	0,00036
633,48000	0,08687	0,00048
633,52000	0,08585	0,00048
633,56000	0,09420	0,00041
633,60000	0,08391	0,00033
633,64000	0,08977	0,00031
633,68000	0,08575	0,00027
633,72000	0,08386	0,00038
633,76000	0,08493	0,00023
633,80000	0,08488	0,00050
633,84000	0,08488	0,00050
633,88000	0,08763	0,00076
633,92000	0,08289	0,00046
633,96000	0,08274	0,00039
634,00000	0,08559	0,00025
634,04000	0,08381	0,00042
634,08000	0,08391	0,00040
634,12000	0,08193	0,00025
634,16000	0,08855	0,00052
634,20000	0,08575	0,00036
634,24000	0,08396	0,00034
634,28000	0,08381	0,00036
634,32000	0,08493	0,00046
634,36000	0,08478	0,00046
634,40000	0,08493	0,00040
634,44000	0,08575	0,00042
634,48000	0,08844	0,00050
634,52000	0,08315	0,00050
634,56000	0,08315	0,00038
634,60000	0,08544	0,00033
634,64000	0,08865	0,00047
634,68000	0,08850	0,00046
634,72000	0,08590	0,00031
634,76000	0,08773	0,00031
634,80000	0,08096	0,00065
634,84000	0,08951	0,00040
634,88000	0,08773	0,00031
634,92000	0,08590	0,00031
634,96000	0,08585	0,00042
635,00000	0,08284	0,00064
635,04000	0,08890	0,00053
635,08000	0,07897	0,00052
635,12000	0,08396	0,00041
635,16000	0,08478	0,00051
635,20000	0,08946	0,00031
635,24000	0,08926	0,00044
635,28000	0,08656	0,00041
635,32000	0,09028	0,00031
635,36000	0,08829	0,00036
635,40000	0,08177	0,00027
635,44000	0,08300	0,00041
635,48000	0,08585	0,00036
635,52000	0,08188	0,00033
635,56000	0,08208	0,00040
635,60000	0,08570	0,00050
635,64000	0,08590	0,00050
635,68000	0,08575	0,00027
635,72000	0,08289	0,00040
635,76000	0,08595	0,00040
635,80000	0,08498	0,00047
635,84000	0,08478	0,00023
635,88000	0,08483	0,00048
635,92000	0,08396	0,00034
635,96000	0,08447	0,00034
636,00000	0,08193	0,00041
636,04000	0,08101	0,00047
636,08000	0,08768	0,00040
636,12000	0,08687	0,00058
636,16000	0,08661	0,00034
636,20000	0,08473	0,00048
636,24000	0,08183	0,00050
636,28000	0,08289	0,00040
636,32000	0,08279	0,00048
636,36000	0,08366	0,00020
636,40000	0,08101	0,00041
636,44000	0,08106	0,00023
636,48000	0,08773	0,00031
636,52000	0,08570	0,00050
636,56000	0,08412	0,00033
636,60000	0,08203	0,00057
636,64000	0,08188	0,00040
636,68000	0,08595	0,00023
636,72000	0,08580	0,00032
636,76000	0,08600	0,00041
636,80000	0,08564	0,00046
636,84000	0,08839	0,00036
636,88000	0,08972	0,00046
636,92000	0,08386	0,00038
636,96000	0,08610	0,00025
637,00000	0,08473	0,00027
637,04000	0,08498	0,00057
637,08000	0,08788	0,00042
637,12000	0,08096	0,00052
637,16000	0,08284	0,00038
637,20000	0,08564	0,00033
637,24000	0,08468	0,00050
637,28000	0,08656	0,00034
637,32000	0,08656	0,00025
637,36000	0,08778	0,00042
637,40000	0,09028	0,00038
637,44000	0,08758	0,00052
637,48000	0,08692	0,00031
637,52000	0,08412	0,00033
637,56000	0,08208	0,00046
637,60000	0,08193	0,00041
637,64000	0,08284	0,00038
637,68000	0,08081	0,00044
637,72000	0,08508	0,00052
637,76000	0,08850	0,00051
637,80000	0,08493	0,00023
637,84000	0,08463	0,00051
637,88000	0,08289	0,00033
637,92000	0,08289	0,00033
637,96000	0,08025	0,00048
638,00000	0,08758	0,00034
638,04000	0,08483	0,00036
638,08000	0,08381	0,00027
638,12000	0,08763	0,00047
638,16000	0,08091	0,00047
638,20000	0,08111	0,00044
638,24000	0,08330	0,00036
638,28000	0,08371	0,00036
638,32000	0,08600	0,00041
638,36000	0,08391	0,00046
638,40000	0,08936	0,00039
638,44000	0,08834	0,00046
638,48000	0,08850	0,00040
638,52000	0,08844	0,00055
638,56000	0,08208	0,00033
638,60000	0,08488	0,00038
638,64000	0,08946	0,00044
638,68000	0,08407	0,00034
638,72000	0,08498	0,00061
638,76000	0,08183	0,00038
638,80000	0,08183	0,00044
638,84000	0,08483	0,00058
638,88000	0,08493	0,00046
638,92000	0,08580	0,00039
638,96000	0,08758	0,00025
639,00000	0,09053	0,00046
639,04000	0,08855	0,00034
639,08000	0,08880	0,00027
639,12000	0,08753	0,00034
639,16000	0,08580	0,00023
639,20000	0,08768	0,00033
639,24000	0,08824	0,00031
639,28000	0,08676	0,00042
639,32000	0,08758	0,00047
639,36000	0,08468	0,00038
639,40000	0,08483	0,00027
639,44000	0,09063	0,00041
639,48000	0,09328	0,00046
639,52000	0,08488	0,00031
639,56000	0,08956	0,00025
639,60000	0,08478	0,00039
639,64000	0,08676	0,00042
639,68000	0,08697	0,00046
639,72000	0,08463	0,00033
639,76000	0,08544	0,00056
639,80000	0,08580	0,00032
639,84000	0,09028	0,00031
639,88000	0,08376	0,00046
639,92000	0,08483	0,00036
639,96000	0,08478	0,00039
640,00000	0,08783	0,00023
640,04000	0,08844	0,00038
640,08000	0,08855	0,00057
640,12000	0,08865	0,00047
640,16000	0,08671	0,00055
640,20000	0,08407	0,00034
640,24000	0,08676	0,00036
640,28000	0,08671	0,00050
640,32000	0,08503	0,00041
640,36000	0,08773	0,00055
640,40000	0,09048	0,00055
640,44000	0,08987	0,00023
640,48000	0,08839	0,00027
640,52000	0,08636	0,00027
640,56000	0,08646	0,00046
640,60000	0,08483	0,00042
640,64000	0,08850	0,00033
640,68000	0,09053	0,00033
640,72000	0,09165	0,00047
640,76000	0,08407	0,00057
640,80000	0,08493	0,00040
640,84000	0,08941	0,00048
640,88000	0,08956	0,00041
640,92000	0,08748	0,00033
640,96000	0,09231	0,00038
641,00000	0,08687	0,00053
641,04000	0,09033	0,00036
641,08000	0,08824	0,00038
641,12000	0,08794	0,00050
641,16000	0,08773	0,00020
641,20000	0,08600	0,00034
641,24000	0,08962	0,00034
641,28000	0,08758	0,00034
641,32000	0,08946	0,00044
641,36000	0,08783	0,00023
641,40000	0,08753	0,00047
641,44000	0,08778	0,00053
641,48000	0,08931	0,00058
641,52000	0,08580	0,00023
641,56000	0,09323	0,00034
641,60000	0,09216	0,00025
641,64000	0,08936	0,00076
641,68000	0,09053	0,00040
641,72000	0,09623	0,00025
641,76000	0,09608	0,00050
641,80000	0,09425	0,00025
641,84000	0,09048	0,00055
641,88000	0,09720	0,00034
641,92000	0,09343	0,00039
641,96000	0,09231	0,00038
642,00000	0,09822	0,00034
642,04000	0,09827	0,00041
642,08000	0,09440	0,00027
642,12000	0,09786	0,00046
642,16000	0,10189	0,00034
642,20000	0,10387	0,00034
642,24000	0,10565	0,00051
642,28000	0,10377	0,00033
642,32000	0,10387	0,00034
642,36000	0,10749	0,00057
642,40000	0,11421	0,00071
642,44000	0,11894	0,00036
642,48000	0,12149	0,00048
642,52000	0,12154	0,00050
642,56000	0,13004	0,00036
642,60000	0,13289	0,00052
642,64000	0,13284	0,00065
642,68000	0,14328	0,00036
642,72000	0,15071	0,00057
642,76000	0,15652	0,00036
642,80000	0,15275	0,00025
642,84000	0,16970	0,00038
642,88000	0,16716	0,00020
642,92000	0,16680	0,00042
642,96000	0,17897	0,00023
643,00000	0,18671	0,00044
643,04000	0,18401	0,00036
643,08000	0,18554	0,00027
643,12000	0,19409	0,00040
643,16000	0,20000	0,00033
643,20000	0,19175	0,00027
643,24000	0,19149	0,00057
643,28000	0,19261	0,00059
643,32000	0,20091	0,00042
643,36000	0,19989	0,00048
643,40000	0,19526	0,00051
643,44000	0,19058	0,00050
643,48000	0,18773	0,00020
643,52000	0,18762	0,00023
643,56000	0,19429	0,00048
643,60000	0,18381	0,00052
643,64000	0,17709	0,00033
643,68000	0,17907	0,00031
643,72000	0,16690	0,00051
643,76000	0,16227	0,00031
643,80000	0,16222	0,00042
643,84000	0,15937	0,00034
643,88000	0,15265	0,00051
643,92000	0,14165	0,00033
643,96000	0,14613	0,00052
644,00000	0,13503	0,00051
644,04000	0,13116	0,00027
644,08000	0,12256	0,00038
644,12000	0,12240	0,00027
644,16000	0,11492	0,00055
644,20000	0,11400	0,00052
644,24000	0,11029	0,00048
644,28000	0,11034	0,00031
644,32000	0,09965	0,00044
644,36000	0,10372	0,00020
644,40000	0,10372	0,00038
644,44000	0,10005	0,00039
644,48000	0,09420	0,00047
644,52000	0,10015	0,00031
644,56000	0,09155	0,00046
644,60000	0,09221	0,00034
644,64000	0,09700	0,00032
644,68000	0,09690	0,00038
644,72000	0,08916	0,00057
644,76000	0,09812	0,00038
644,80000	0,08977	0,00050
644,84000	0,08198	0,00025
644,88000	0,09236	0,00048
644,92000	0,08946	0,00044
644,96000	0,09038	0,00039
645,00000	0,09058	0,00052
645,04000	0,08967	0,00025
645,08000	0,08570	0,00038
645,12000	0,08401	0,00041
645,16000	0,08483	0,00027
645,20000	0,08855	0,00041
645,24000	0,09140	0,00023
645,28000	0,09150	0,00044
645,32000	0,08814	0,00041
645,36000	0,08865	0,00052
645,40000	0,08941	0,00042
645,44000	0,08687	0,00053
645,48000	0,09221	0,00034
645,52000	0,08941	0,00048
645,56000	0,08682	0,00039
645,60000	0,08651	0,00041
645,64000	0,08941	0,00042
645,68000	0,08936	0,00051
645,72000	0,08651	0,00034
645,76000	0,08931	0,00048
645,80000	0,09140	0,00039
645,84000	0,08788	0,00042
645,88000	0,08763	0,00025
645,92000	0,08951	0,00046
645,96000	0,08972	0,00033
646,00000	0,09313	0,00034
646,04000	0,08717	0,00051
646,08000	0,08936	0,00032
646,12000	0,08946	0,00038
646,16000	0,08941	0,00048
646,20000	0,08956	0,00034
646,24000	0,09303	0,00050
646,28000	0,09201	0,00031
646,32000	0,09155	0,00033
646,36000	0,08951	0,00040
646,40000	0,08671	0,00055
646,44000	0,09348	0,00027
646,48000	0,09333	0,00055
646,52000	0,09348	0,00048
646,56000	0,09247	0,00066
646,60000	0,09048	0,00031
646,64000	0,09323	0,00041
646,68000	0,09318	0,00034
646,72000	0,09603	0,00027
646,76000	0,09629	0,00025
646,80000	0,09588	0,00044
646,84000	0,09888	0,00060
646,88000	0,10000	0,00042
646,92000	0,09532	0,00040
646,96000	0,10275	0,00023
647,00000	0,10555	0,00038
647,04000	0,10560	0,00042
647,08000	0,10545	0,00041
647,12000	0,11039	0,00056
647,16000	0,10912	0,00038
647,20000	0,11609	0,00034
647,24000	0,11777	0,00031
647,28000	0,12632	0,00047
647,32000	0,12088	0,00027
647,36000	0,12072	0,00034
647,40000	0,12653	0,00046
647,44000	0,13320	0,00027
647,48000	0,12531	0,00057
647,52000	0,13381	0,00046
647,56000	0,13386	0,00047
647,60000	0,13228	0,00046
647,64000	0,13203	0,00044
647,68000	0,12256	0,00044
647,72000	0,12347	0,00039
647,76000	0,13004	0,00053
647,80000	0,13376	0,00038
647,84000	0,12245	0,00023
647,88000	0,12821	0,00046
647,92000	0,12856	0,00032
647,96000	0,12337	0,00038
648,00000	0,12368	0,00047
648,04000	0,11772	0,00046
648,08000	0,11507	0,00025
648,12000	0,11416	0,00040
648,16000	0,11594	0,00064
648,20000	0,10647	0,00047
648,24000	0,10626	0,00020
648,28000	0,10453	0,00031
648,32000	0,10087	0,00034
648,36000	0,09786	0,00046
648,40000	0,10295	0,00033
648,44000	0,09720	0,00073
648,48000	0,09430	0,00023
648,52000	0,09435	0,00031
648,56000	0,09445	0,00023
648,60000	0,09018	0,00034
648,64000	0,09715	0,00033
648,68000	0,09613	0,00033
648,72000	0,09206	0,00040
648,76000	0,09033	0,00042
648,80000	0,08651	0,00061
648,84000	0,08661	0,00047
648,88000	0,08692	0,00031
648,92000	0,08977	0,00044
648,96000	0,09318	0,00057
649,00000	0,09226	0,00056
649,04000	0,08748	0,00033
649,08000	0,09160	0,00041
649,12000	0,09165	0,00034
649,16000	0,09231	0,00044
649,20000	0,08844	0,00050
649,24000	0,08951	0,00046
649,28000	0,09150	0,00064
649,32000	0,08844	0,00038
649,36000	0,08967	0,00041
649,40000	0,08962	0,00047
649,44000	0,08962	0,00047
649,48000	0,08682	0,00039
649,52000	0,08967	0,00047
649,56000	0,08855	0,00025
649,60000	0,08885	0,00051
649,64000	0,08768	0,00033
649,68000	0,08498	0,00047
649,72000	0,08473	0,00048
649,76000	0,08676	0,00027
649,80000	0,09313	0,00047
649,84000	0,08682	0,00051
649,88000	0,08396	0,00034
649,92000	0,08763	0,00052
649,96000	0,08483	0,00042
650,00000	0,08493	0,00056
650,04000	0,09033	0,00042
650,08000	0,08666	0,00046
650,12000	0,08386	0,00031
650,16000	0,08676	0,00048
650,20000	0,08676	0,00042
650,24000	0,08585	0,00036
650,28000	0,08580	0,00039
650,32000	0,08967	0,00034
650,36000	0,08778	0,00042
650,40000	0,08926	0,00038
650,44000	0,09135	0,00042
650,48000	0,08941	0,00062
650,52000	0,08788	0,00036
650,56000	0,08666	0,00040
650,60000	0,08687	0,00048
650,64000	0,08193	0,00034
650,68000	0,08004	0,00033
650,72000	0,08386	0,00031
650,76000	0,08193	0,00069
650,80000	0,08590	0,00031
650,84000	0,09216	0,00041
650,88000	0,09221	0,00034
650,92000	0,08478	0,00023
650,96000	0,08167	0,00048
651,00000	0,08473	0,00027
651,04000	0,08478	0,00056
651,08000	0,08850	0,00040
651,12000	0,08417	0,00031
651,16000	0,09038	0,00039
651,20000	0,09058	0,00061
651,24000	0,08096	0,00041
651,28000	0,08386	0,00038
651,32000	0,08381	0,00036
651,36000	0,08585	0,00015
651,40000	0,08600	0,00041
651,44000	0,08773	0,00044
651,48000	0,08768	0,00040
651,52000	0,08768	0,00033
651,56000	0,08391	0,00046
651,60000	0,08300	0,00025
651,64000	0,08946	0,00038
651,68000	0,08967	0,00034
651,72000	0,09033	0,00048
651,76000	0,09038	0,00032
651,80000	0,08554	0,00047
651,84000	0,08860	0,00034
651,88000	0,08590	0,00038
651,92000	0,08188	0,00051
651,96000	0,08600	0,00025
652,00000	0,08478	0,00046
652,04000	0,08962	0,00041
652,08000	0,08972	0,00033
652,12000	0,08682	0,00032
652,16000	0,08493	0,00046
652,20000	0,08671	0,00050
652,24000	0,08488	0,00055
652,28000	0,09048	0,00031
652,32000	0,08503	0,00047
652,36000	0,08447	0,00047
652,40000	0,08575	0,00027
652,44000	0,08687	0,00048
652,48000	0,08962	0,00047
652,52000	0,08870	0,00040
652,56000	0,08850	0,00033
652,60000	0,08788	0,00042
652,64000	0,08773	0,00055
652,68000	0,08666	0,00046
652,72000	0,08671	0,00038
652,76000	0,08956	0,00041
652,80000	0,08478	0,00046
652,84000	0,08951	0,00040
652,88000	0,08651	0,00052
652,92000	0,08386	0,00038
652,96000	0,08376	0,00039
653,00000	0,09063	0,00047
653,04000	0,08671	0,00050
653,08000	0,08865	0,00034
653,12000	0,08773	0,00020
653,16000	0,08310	0,00051
653,20000	0,08844	0,00050
653,24000	0,08875	0,00059
653,28000	0,08962	0,00025
653,32000	0,08580	0,00023
653,36000	0,08463	0,00046
653,40000	0,07994	0,00041
653,44000	0,08493	0,00046
653,48000	0,08386	0,00038
653,52000	0,08738	0,00036
653,56000	0,08788	0,00015
653,60000	0,08951	0,00046
653,64000	0,09410	0,00033
653,68000	0,09236	0,00027
653,72000	0,08570	0,00038
653,76000	0,08483	0,00042
653,80000	0,08300	0,00041
653,84000	0,08315	0,00044
653,88000	0,08671	0,00044
653,92000	0,08834	0,00051
653,96000	0,09135	0,00042
654,00000	0,08692	0,00044
654,04000	0,08086	0,00033
654,08000	0,08676	0,00036
654,12000	0,08692	0,00038
654,16000	0,08401	0,00034
654,20000	0,08595	0,00051
654,24000	0,08763	0,00034
654,28000	0,08804	0,00047
654,32000	0,08101	0,00047
654,36000	0,08580	0,00023
654,40000	0,08473	0,00042
654,44000	0,08483	0,00048
654,48000	0,08656	0,00034
654,52000	0,08320	0,00027
654,56000	0,08778	0,00053
654,60000	0,08962	0,00047
654,64000	0,08463	0,00033
654,68000	0,08946	0,00038
654,72000	0,08941	0,00027
654,76000	0,09038	0,00039
654,80000	0,08763	0,00034
654,84000	0,07974	0,00015
654,88000	0,08682	0,00046
654,92000	0,09018	0,00041
654,96000	0,08183	0,00038
655,00000	0,08213	0,00038
655,04000	0,08183	0,00038
655,08000	0,08177	0,00036
655,12000	0,08676	0,00062
655,16000	0,08768	0,00033
655,20000	0,09135	0,00036
655,24000	0,08595	0,00033
655,28000	0,08600	0,00041
655,32000	0,08595	0,00033
655,36000	0,08106	0,00046
655,40000	0,08590	0,00044
655,44000	0,08656	0,00034
655,48000	0,08839	0,00036
655,52000	0,08580	0,00046
655,56000	0,08570	0,00038
655,60000	0,08575	0,00036
655,64000	0,08396	0,00041
655,68000	0,08992	0,00036
655,72000	0,08463	0,00033
655,76000	0,08794	0,00031
655,80000	0,08417	0,00050
655,84000	0,08514	0,00060
655,88000	0,08855	0,00047
655,92000	0,08860	0,00052
655,96000	0,08004	0,00046
656,00000	0,07999	0,00041
656,04000	0,08855	0,00034
656,08000	0,08666	0,00040
656,12000	0,08768	0,00023
656,16000	0,08564	0,00033
656,20000	0,08580	0,00032
656,24000	0,08590	0,00031
656,28000	0,08687	0,00048
656,32000	0,08972	0,00040
656,36000	0,08463	0,00056
656,40000	0,08967	0,00047
656,44000	0,08483	0,00027
656,48000	0,08478	0,00046
656,52000	0,08473	0,00058
656,56000	0,08844	0,00031
656,60000	0,08554	0,00047
656,64000	0,08941	0,00042
656,68000	0,09160	0,00034
656,72000	0,08193	0,00041
656,76000	0,08860	0,00041
656,80000	0,08844	0,00038
656,84000	0,08580	0,00039
656,88000	0,08401	0,00034
656,92000	0,08967	0,00041
656,96000	0,08860	0,00025
657,00000	0,08610	0,00025
657,04000	0,08463	0,00046
657,08000	0,08468	0,00038
657,12000	0,09063	0,00041
657,16000	0,08936	0,00051
657,20000	0,08203	0,00041
657,24000	0,08407	0,00034
657,28000	0,08692	0,00044
657,32000	0,08401	0,00041
657,36000	0,08422	0,00042
657,40000	0,08473	0,00036
657,44000	0,08605	0,00034
657,48000	0,08967	0,00034
657,52000	0,08788	0,00015
657,56000	0,08941	0,00058
657,60000	0,08763	0,00041
657,64000	0,08956	0,00061
657,68000	0,08936	0,00046
657,72000	0,08208	0,00033
657,76000	0,08564	0,00051
657,80000	0,08738	0,00042
657,84000	0,08855	0,00034
657,88000	0,08585	0,00036
657,92000	0,08300	0,00052
657,96000	0,08295	0,00041
658,00000	0,09043	0,00042
658,04000	0,08401	0,00052
658,08000	0,08274	0,00060
658,12000	0,08743	0,00038
658,16000	0,08371	0,00042
658,20000	0,08473	0,00027
658,24000	0,08666	0,00033
658,28000	0,08676	0,00027
658,32000	0,08753	0,00041
658,36000	0,08967	0,00041
658,40000	0,08951	0,00033
658,44000	0,09038	0,00046
658,48000	0,08682	0,00060
658,52000	0,08768	0,00023
658,56000	0,08778	0,00048
658,60000	0,08875	0,00031
658,64000	0,09048	0,00031
658,68000	0,08778	0,00036
658,72000	0,09247	0,00042
658,76000	0,09425	0,00034
658,80000	0,08936	0,00046
658,84000	0,08951	0,00060
658,88000	0,08972	0,00040
658,92000	0,09822	0,00034
658,96000	0,08839	0,00042
659,00000	0,09160	0,00052
659,04000	0,09817	0,00023
659,08000	0,09517	0,00052
659,12000	0,09995	0,00050
659,16000	0,09970	0,00056
659,20000	0,10066	0,00044
659,24000	0,09618	0,00047
659,28000	0,09995	0,00055
659,32000	0,10652	0,00040
659,36000	0,09980	0,00025
659,40000	0,10942	0,00069
659,44000	0,10922	0,00046
659,48000	0,10952	0,00052
659,52000	0,11115	0,00059
659,56000	0,10738	0,00047
659,60000	0,11696	0,00031
659,64000	0,11411	0,00052
659,68000	0,11696	0,00031
659,72000	0,11696	0,00038
659,76000	0,11293	0,00040
659,80000	0,11105	0,00034
659,84000	0,11029	0,00036
659,88000	0,11298	0,00034
659,92000	0,12083	0,00064
659,96000	0,11405	0,00041
660,00000	0,11400	0,00061
660,04000	0,11421	0,00031
660,08000	0,11227	0,00023
660,12000	0,11599	0,00033
660,16000	0,10586	0,00034
660,20000	0,10830	0,00020
660,24000	0,10718	0,00039
660,28000	0,10173	0,00051
660,32000	0,10209	0,00032
660,36000	0,11024	0,00032
660,40000	0,10652	0,00040
660,44000	0,10194	0,00051
660,48000	0,10005	0,00032
660,52000	0,09420	0,00061
660,56000	0,09715	0,00056
660,60000	0,09629	0,00041
660,64000	0,09608	0,00044
660,68000	0,08951	0,00046
660,72000	0,09155	0,00040
660,76000	0,09415	0,00034
660,80000	0,09211	0,00047
660,84000	0,09018	0,00047
660,88000	0,08656	0,00041
660,92000	0,08687	0,00048
660,96000	0,08498	0,00047
661,00000	0,08870	0,00033
661,04000	0,08412	0,00023
661,08000	0,09124	0,00033
661,12000	0,09242	0,00032
661,16000	0,09323	0,00041
661,20000	0,09333	0,00055
661,24000	0,08391	0,00051
661,28000	0,09236	0,00036
661,32000	0,08768	0,00023
661,36000	0,09328	0,00068
661,40000	0,09150	0,00044
661,44000	0,08682	0,00032
661,48000	0,08977	0,00038
661,52000	0,08972	0,00046
661,56000	0,09338	0,00066
661,60000	0,09420	0,00052
661,64000	0,09420	0,00047
661,68000	0,09058	0,00041
661,72000	0,09318	0,00047
661,76000	0,09104	0,00051
661,80000	0,09155	0,00033
661,84000	0,09425	0,00025
661,88000	0,09058	0,00047
661,92000	0,09211	0,00034
661,96000	0,09053	0,00051
662,00000	0,08396	0,00025
662,04000	0,09175	0,00040
662,08000	0,09140	0,00039
662,12000	0,08773	0,00031
662,16000	0,09898	0,00053
662,20000	0,09043	0,00058
662,24000	0,09532	0,00046
662,28000	0,09608	0,00044
662,32000	0,09685	0,00051
662,36000	0,09522	0,00034
662,40000	0,09522	0,00052
662,44000	0,10448	0,00033
662,48000	0,09883	0,00057
662,52000	0,09511	0,00046
662,56000	0,09634	0,00040
662,60000	0,09741	0,00038
662,64000	0,09430	0,00023
662,68000	0,09445	0,00039
662,72000	0,10112	0,00042
662,76000	0,10199	0,00064
662,80000	0,10906	0,00033
662,84000	0,10377	0,00023
662,88000	0,10458	0,00027
662,92000	0,11100	0,00041
662,96000	0,10458	0,00048
663,00000	0,10464	0,00051
663,04000	0,10560	0,00042
663,08000	0,10937	0,00046
663,12000	0,10922	0,00056
663,16000	0,11232	0,00048
663,20000	0,10866	0,00036
663,24000	0,11024	0,00039
663,28000	0,11008	0,00060
663,32000	0,11879	0,00038
663,36000	0,11874	0,00046
663,40000	0,11034	0,00044
663,44000	0,11003	0,00034
663,48000	0,11874	0,00040
663,52000	0,11482	0,00046
663,56000	0,11512	0,00057
663,60000	0,11711	0,00057
663,64000	0,12179	0,00046
663,68000	0,12648	0,00036
663,72000	0,11472	0,00031
663,76000	0,11691	0,00042
663,80000	0,11324	0,00048
663,84000	0,11869	0,00041
663,88000	0,11864	0,00025
663,92000	0,11400	0,00034
663,96000	0,11105	0,00025
664,00000	0,11018	0,00042
664,04000	0,11390	0,00050
664,08000	0,11787	0,00051
664,12000	0,10840	0,00041
664,16000	0,10845	0,00034
664,20000	0,10555	0,00038
664,24000	0,10728	0,00038
664,28000	0,10840	0,00025
664,32000	0,10183	0,00052
664,36000	0,10199	0,00044
664,40000	0,09914	0,00038
664,44000	0,09898	0,00058
664,48000	0,10183	0,00047
664,52000	0,10443	0,00041
664,56000	0,10173	0,00040
664,60000	0,10015	0,00020
664,64000	0,10021	0,00040
664,68000	0,09242	0,00039
664,72000	0,10026	0,00034
664,76000	0,09995	0,00038
664,80000	0,09338	0,00053
664,84000	0,10382	0,00047
664,88000	0,09802	0,00046
664,92000	0,09909	0,00048
664,96000	0,09797	0,00036
665,00000	0,09629	0,00041
665,04000	0,09613	0,00023
665,08000	0,09231	0,00031
665,12000	0,08926	0,00038
665,16000	0,09542	0,00042
665,20000	0,09511	0,00051
665,24000	0,09165	0,00025
665,28000	0,08951	0,00040
665,32000	0,08783	0,00039
665,36000	0,08768	0,00033
665,40000	0,08401	0,00034
665,44000	0,08819	0,00033
665,48000	0,08575	0,00036
665,52000	0,09140	0,00060
665,56000	0,09231	0,00031
665,60000	0,09135	0,00048
665,64000	0,09170	0,00041
665,68000	0,09216	0,00025
665,72000	0,08967	0,00052
665,76000	0,09527	0,00047
665,80000	0,09221	0,00057
665,84000	0,08972	0,00033
665,88000	0,08921	0,00033
665,92000	0,08962	0,00034
665,96000	0,08570	0,00038
666,00000	0,08478	0,00046
666,04000	0,08865	0,00041
666,08000	0,09023	0,00033
666,12000	0,08498	0,00041
666,16000	0,09420	0,00034
666,20000	0,09303	0,00059
666,24000	0,09364	0,00057
666,28000	0,08590	0,00038
666,32000	0,08554	0,00041
666,36000	0,08753	0,00034
666,40000	0,09216	0,00034
666,44000	0,08911	0,00061
666,48000	0,08580	0,00039
666,52000	0,08570	0,00038
666,56000	0,08676	0,00042
666,60000	0,08839	0,00042
666,64000	0,08956	0,00047
666,68000	0,09155	0,00033
666,72000	0,08982	0,00042
666,76000	0,08778	0,00036
666,80000	0,08773	0,00038
666,84000	0,08783	0,00032
666,88000	0,08875	0,00031
666,92000	0,08860	0,00041
666,96000	0,08656	0,00034
667,00000	0,09410	0,00033
667,04000	0,08839	0,00048
667,08000	0,09145	0,00036
667,12000	0,09119	0,00047
667,16000	0,08590	0,00038
667,20000	0,09343	0,00046
667,24000	0,08819	0,00040
667,28000	0,08977	0,00020
667,32000	0,08595	0,00033
667,36000	0,08824	0,00031
667,40000	0,08844	0,00055
667,44000	0,08855	0,00057
667,48000	0,08671	0,00075
667,52000	0,08946	0,00055
667,56000	0,08844	0,00038
667,60000	0,08570	0,00050
667,64000	0,08763	0,00034
667,68000	0,08656	0,00047
667,72000	0,08682	0,00039
667,76000	0,08671	0,00044
667,80000	0,08676	0,00048
667,84000	0,08880	0,00036
667,88000	0,08850	0,00051
667,92000	0,08783	0,00046
667,96000	0,08931	0,00042
668,00000	0,08962	0,00047
668,04000	0,09038	0,00039
668,08000	0,08753	0,00047
668,12000	0,08921	0,00046
668,16000	0,08447	0,00034
668,20000	0,09140	0,00032
668,24000	0,08473	0,00048
668,28000	0,08478	0,00046
668,32000	0,08666	0,00033
668,36000	0,09348	0,00053
668,40000	0,09262	0,00041
668,44000	0,08819	0,00040
668,48000	0,08468	0,00038
668,52000	0,08758	0,00025
668,56000	0,08478	0,00051
668,60000	0,08463	0,00033
668,64000	0,08936	0,00060
668,68000	0,08844	0,00038
668,72000	0,09135	0,00042
668,76000	0,08580	0,00046
668,80000	0,08956	0,00041
668,84000	0,08585	0,00027
668,88000	0,08590	0,00020
668,92000	0,09333	0,00044
668,96000	0,08839	0,00027
669,00000	0,08570	0,00044
669,04000	0,08580	0,00032
669,08000	0,08768	0,00046
669,12000	0,08763	0,00034
669,16000	0,08748	0,00040
669,20000	0,08590	0,00044
669,24000	0,08783	0,00039
669,28000	0,08493	0,00033
669,32000	0,08778	0,00042
669,36000	0,08850	0,00046
669,40000	0,08865	0,00041
669,44000	0,08590	0,00038
669,48000	0,08590	0,00038
669,52000	0,08401	0,00025
669,56000	0,08962	0,00034
669,60000	0,08875	0,00044
669,64000	0,08559	0,00034
669,68000	0,08488	0,00059
669,72000	0,09252	0,00050
669,76000	0,09221	0,00025
669,80000	0,08554	0,00041
669,84000	0,08692	0,00038
669,88000	0,09038	0,00046
669,92000	0,08778	0,00042
669,96000	0,09058	0,00025
670,00000	0,08962	0,00041
670,04000	0,09038	0,00039
670,08000	0,09023	0,00046
670,12000	0,09216	0,00034
670,16000	0,08844	0,00050
670,20000	0,09140	0,00060
670,24000	0,09043	0,00036
670,28000	0,09211	0,00025
670,32000	0,09685	0,00051
670,36000	0,09695	0,00048
670,40000	0,09435	0,00038
670,44000	0,09527	0,00057
670,48000	0,09236	0,00036
670,52000	0,08977	0,00031
670,56000	0,09613	0,00040
670,60000	0,09598	0,00060
670,64000	0,09639	0,00031
670,68000	0,09348	0,00053
670,72000	0,09695	0,00042
670,76000	0,09517	0,00041
670,80000	0,09914	0,00044
670,84000	0,09527	0,00025
670,88000	0,09435	0,00031
670,92000	0,09517	0,00052
670,96000	0,09547	0,00039
671,00000	0,09338	0,00027
671,04000	0,09430	0,00023
671,08000	0,09812	0,00031
671,12000	0,09786	0,00040
671,16000	0,09348	0,00042
671,20000	0,09588	0,00038
671,24000	0,09588	0,00044
671,28000	0,09959	0,00027
671,32000	0,09893	0,00044
671,36000	0,10189	0,00041
671,40000	0,09822	0,00041
671,44000	0,10010	0,00027
671,48000	0,10077	0,00034
671,52000	0,10092	0,00033
671,56000	0,09155	0,00046
671,60000	0,09985	0,00025
671,64000	0,10275	0,00046
671,68000	0,09613	0,00065
671,72000	0,09608	0,00020
671,76000	0,09506	0,00038
671,80000	0,09140	0,00056
671,84000	0,09135	0,00015
671,88000	0,09333	0,00038
671,92000	0,09313	0,00034
671,96000	0,09145	0,00053
672,00000	0,09715	0,00040
672,04000	0,09629	0,00025
672,08000	0,09450	0,00042
672,12000	0,09405	0,00050
672,16000	0,09140	0,00039
672,20000	0,09522	0,00041
672,24000	0,08951	0,00040
672,28000	0,09333	0,00031
672,32000	0,09211	0,00041
672,36000	0,08651	0,00034
672,40000	0,08967	0,00057
672,44000	0,08962	0,00041
672,48000	0,09236	0,00036
672,52000	0,08412	0,00046
672,56000	0,09496	0,00046
672,60000	0,09165	0,00034
672,64000	0,08676	0,00042
672,68000	0,09226	0,00023
672,72000	0,09231	0,00038
672,76000	0,08870	0,00051
672,80000	0,08682	0,00039
672,84000	0,08661	0,00047
672,88000	0,08972	0,00033
672,92000	0,08697	0,00040
672,96000	0,08855	0,00057
673,00000	0,08865	0,00034
673,04000	0,08977	0,00050
673,08000	0,08931	0,00058
673,12000	0,08590	0,00031
673,16000	0,08778	0,00036
673,20000	0,08183	0,00031
673,24000	0,09048	0,00031
673,28000	0,09130	0,00050
673,32000	0,09124	0,00033
673,36000	0,09216	0,00034
673,40000	0,08442	0,00033
673,44000	0,08855	0,00041
673,48000	0,08687	0,00053
673,52000	0,08850	0,00023
673,56000	0,08870	0,00051
673,60000	0,08839	0,00036
673,64000	0,09165	0,00025
673,68000	0,09058	0,00047
673,72000	0,08544	0,00033
673,76000	0,08661	0,00034
673,80000	0,08768	0,00033
673,84000	0,08850	0,00056
673,88000	0,08829	0,00042
673,92000	0,08962	0,00034
673,96000	0,09160	0,00052
674,00000	0,08666	0,00046
674,04000	0,09140	0,00032
674,08000	0,08396	0,00034
674,12000	0,09150	0,00031
674,16000	0,08600	0,00034
674,20000	0,08590	0,00031
674,24000	0,08682	0,00046
674,28000	0,09033	0,00042
674,32000	0,08956	0,00061
674,36000	0,08676	0,00048
674,40000	0,08488	0,00038
674,44000	0,08844	0,00050
674,48000	0,08834	0,00039
674,52000	0,08758	0,00025
674,56000	0,08651	0,00052
674,60000	0,08768	0,00040
674,64000	0,09053	0,00051
674,68000	0,08325	0,00068
674,72000	0,09058	0,00052
674,76000	0,09074	0,00051
674,80000	0,09043	0,00042
674,84000	0,08946	0,00050
674,88000	0,08692	0,00044
674,92000	0,09226	0,00033
674,96000	0,08463	0,00040
675,00000	0,08682	0,00039
675,04000	0,09053	0,00065
675,08000	0,09023	0,00040
675,12000	0,08483	0,00053
675,16000	0,08748	0,00033
675,20000	0,08473	0,00042
675,24000	0,08590	0,00050
675,28000	0,08855	0,00034
675,32000	0,08661	0,00041
675,36000	0,08671	0,00031
675,40000	0,08193	0,00025
675,44000	0,08376	0,00039
675,48000	0,08661	0,00041
675,52000	0,08177	0,00036
675,56000	0,08855	0,00041
675,60000	0,08422	0,00036
675,64000	0,08483	0,00042
675,68000	0,08483	0,00036
675,72000	0,08488	0,00038
675,76000	0,08468	0,00031
675,80000	0,08284	0,00055
675,84000	0,08590	0,00031
675,88000	0,09410	0,00033
675,92000	0,09333	0,00031
675,96000	0,09318	0,00041
676,00000	0,08279	0,00048
676,04000	0,08676	0,00036
676,08000	0,08956	0,00034
676,12000	0,08671	0,00038
676,16000	0,08386	0,00038
676,20000	0,08570	0,00050
676,24000	0,08580	0,00056
676,28000	0,08570	0,00044
676,32000	0,08946	0,00044
676,36000	0,08839	0,00042
676,40000	0,08676	0,00036
676,44000	0,08284	0,00064
676,48000	0,09517	0,00041
676,52000	0,08768	0,00033
676,56000	0,08758	0,00041
676,60000	0,08844	0,00031
676,64000	0,09165	0,00034
676,68000	0,08865	0,00034
676,72000	0,08671	0,00064
676,76000	0,08646	0,00023
676,80000	0,08850	0,00033
676,84000	0,08844	0,00038
676,88000	0,09043	0,00053
676,92000	0,08407	0,00041
676,96000	0,09323	0,00047
677,00000	0,09328	0,00040
677,04000	0,08834	0,00039
677,08000	0,08600	0,00041
677,12000	0,08855	0,00057
677,16000	0,08860	0,00025
677,20000	0,08676	0,00027
677,24000	0,08865	0,00047
677,28000	0,08473	0,00027
677,32000	0,08590	0,00050
677,36000	0,08478	0,00051
677,40000	0,08946	0,00059
677,44000	0,08941	0,00058
677,48000	0,08870	0,00056
677,52000	0,08575	0,00042
677,56000	0,08564	0,00051
677,60000	0,08641	0,00031
677,64000	0,09338	0,00053
677,68000	0,08570	0,00038
677,72000	0,08590	0,00031
677,76000	0,08946	0,00055
677,80000	0,09231	0,00044
677,84000	0,08289	0,00046
677,88000	0,08967	0,00025
677,92000	0,08661	0,00025
677,96000	0,08671	0,00031
678,00000	0,08819	0,00033
678,04000	0,08844	0,00031
678,08000	0,09068	0,00061
678,12000	0,08839	0,00036
678,16000	0,08493	0,00046
678,20000	0,08503	0,00047
678,24000	0,09048	0,00038
678,28000	0,08702	0,00052
678,32000	0,08692	0,00038
678,36000	0,09023	0,00068
678,40000	0,08844	0,00044
678,44000	0,08468	0,00038
678,48000	0,08463	0,00033
678,52000	0,08763	0,00025
678,56000	0,08483	0,00036
678,60000	0,08468	0,00044
678,64000	0,08366	0,00038
678,68000	0,08687	0,00048
678,72000	0,08783	0,00032
678,76000	0,09231	0,00038
678,80000	0,09170	0,00047
678,84000	0,08564	0,00056
678,88000	0,08473	0,00053
678,92000	0,08493	0,00060
678,96000	0,08671	0,00044
679,00000	0,08580	0,00051
679,04000	0,08463	0,00033
679,08000	0,08824	0,00038
679,12000	0,08590	0,00038
679,16000	0,08666	0,00046
679,20000	0,08682	0,00039
679,24000	0,08844	0,00044
679,28000	0,08208	0,00033
679,32000	0,08091	0,00041
679,36000	0,09231	0,00050
679,40000	0,08788	0,00036
679,44000	0,08498	0,00061
679,48000	0,09221	0,00047
679,52000	0,09231	0,00050
679,56000	0,08671	0,00038
679,60000	0,08962	0,00047
679,64000	0,08585	0,00042
679,68000	0,08177	0,00036
679,72000	0,09160	0,00034
679,76000	0,08829	0,00042
679,80000	0,08870	0,00040
679,84000	0,08977	0,00031
679,88000	0,09343	0,00032
679,92000	0,08208	0,00040
679,96000	0,09033	0,00058
680,00000	0,08468	0,00031
680,04000	0,09023	0,00040
680,08000	0,09033	0,00048
680,12000	0,08600	0,00047
680,16000	0,08478	0,00023
680,20000	0,09053	0,00040
680,24000	0,08386	0,00050
680,28000	0,08855	0,00034
680,32000	0,09160	0,00047
680,36000	0,08289	0,00046
680,40000	0,08289	0,00033
680,44000	0,08956	0,00041
680,48000	0,08396	0,00047
680,52000	0,09043	0,00036
680,56000	0,08401	0,00041
680,60000	0,08666	0,00033
680,64000	0,08585	0,00027
680,68000	0,08549	0,00041
680,72000	0,08595	0,00046
680,76000	0,08962	0,00025
680,80000	0,09236	0,00027
680,84000	0,08300	0,00041
680,88000	0,09043	0,00027
680,92000	0,08575	0,00048
680,96000	0,08570	0,00044
681,00000	0,08850	0,00051
681,04000	0,08468	0,00038
681,08000	0,08844	0,00038
681,12000	0,08768	0,00033
681,16000	0,08956	0,00065
681,20000	0,08885	0,00039
681,24000	0,08855	0,00047
681,28000	0,08875	0,00031
681,32000	0,08391	0,00046
681,36000	0,08091	0,00052
681,40000	0,08615	0,00033
681,44000	0,09348	0,00048
681,48000	0,08483	0,00048
681,52000	0,09150	0,00031
681,56000	0,09150	0,00038
681,60000	0,08483	0,00036
681,64000	0,08646	0,00040
681,68000	0,08972	0,00033
681,72000	0,08559	0,00047
681,76000	0,08748	0,00033
681,80000	0,08962	0,00047
681,84000	0,08865	0,00100
681,88000	0,08783	0,00032
681,92000	0,08967	0,00052
681,96000	0,08671	0,00031
682,00000	0,08386	0,00031
682,04000	0,08768	0,00033
682,08000	0,08468	0,00050
682,12000	0,08977	0,00031
682,16000	0,08956	0,00041
682,20000	0,09236	0,00036
682,24000	0,08391	0,00033
682,28000	0,08284	0,00059
682,32000	0,08600	0,00047
682,36000	0,08458	0,00041
682,40000	0,08773	0,00031
682,44000	0,08783	0,00023
682,48000	0,08605	0,00034
682,52000	0,08850	0,00046
682,56000	0,08763	0,00034
682,60000	0,07984	0,00040
682,64000	0,08758	0,00041
682,68000	0,08794	0,00044
682,72000	0,08855	0,00034
682,76000	0,08865	0,00025
682,80000	0,09140	0,00032
682,84000	0,08651	0,00061
682,88000	0,08768	0,00023
682,92000	0,08463	0,00040
682,96000	0,08218	0,00048
683,00000	0,09155	0,00033
683,04000	0,09135	0,00036
683,08000	0,09415	0,00034
683,12000	0,09150	0,00031
683,16000	0,08570	0,00050
683,20000	0,08274	0,00051
683,24000	0,08575	0,00036
683,28000	0,08758	0,00034
683,32000	0,08768	0,00046
683,36000	0,08305	0,00034
683,40000	0,08880	0,00048
683,44000	0,08605	0,00025
683,48000	0,08855	0,00041
683,52000	0,08758	0,00025
683,56000	0,08600	0,00034
683,60000	0,08585	0,00036
683,64000	0,08580	0,00032
683,68000	0,09231	0,00044
683,72000	0,08778	0,00036
683,76000	0,08788	0,00027
683,80000	0,08407	0,00047
683,84000	0,08401	0,00041
683,88000	0,08956	0,00041
683,92000	0,08962	0,00034
683,96000	0,08875	0,00038
684,00000	0,08783	0,00051
684,04000	0,08972	0,00023
684,08000	0,08203	0,00041
684,12000	0,08661	0,00034
684,16000	0,08585	0,00027
684,20000	0,08580	0,00039
684,24000	0,08956	0,00034
684,28000	0,08834	0,00046
684,32000	0,08585	0,00036
684,36000	0,08824	0,00031
684,40000	0,09058	0,00041
684,44000	0,09221	0,00025
684,48000	0,08463	0,00033
684,52000	0,08478	0,00046
684,56000	0,08580	0,00023
684,60000	0,09048	0,00064
684,64000	0,08666	0,00040
684,68000	0,09150	0,00038
684,72000	0,08839	0,00036
684,76000	0,08666	0,00046
684,80000	0,08687	0,00036
684,84000	0,09135	0,00036
684,88000	0,09028	0,00031
684,92000	0,08575	0,00042
684,96000	0,08692	0,00038
685,00000	0,08300	0,00034
685,04000	0,08687	0,00048
685,08000	0,08773	0,00038
685,12000	0,08763	0,00041
685,16000	0,09135	0,00058
685,20000	0,08666	0,00033
685,24000	0,08962	0,00034
685,28000	0,08508	0,00052
685,32000	0,09053	0,00040
685,36000	0,08687	0,00053
685,40000	0,08646	0,00051
685,44000	0,08763	0,00047
685,48000	0,08564	0,00051
685,52000	0,08967	0,00025
685,56000	0,08839	0,00027
685,60000	0,08315	0,00050
685,64000	0,09155	0,00040
685,68000	0,09145	0,00042
685,72000	0,08386	0,00031
685,76000	0,08941	0,00036
685,80000	0,08855	0,00041
685,84000	0,08381	0,00042
685,88000	0,08839	0,00036
685,92000	0,08483	0,00036
685,96000	0,09170	0,00041
686,00000	0,09170	0,00034
686,04000	0,08682	0,00051
686,08000	0,09145	0,00036
686,12000	0,08570	0,00038
686,16000	0,08473	0,00036
686,20000	0,08671	0,00031
686,24000	0,08778	0,00015
686,28000	0,08758	0,00025
686,32000	0,08951	0,00046
686,36000	0,08763	0,00041
686,40000	0,08946	0,00044
686,44000	0,08381	0,00053
686,48000	0,09522	0,00041
686,52000	0,08661	0,00041
686,56000	0,08687	0,00042
686,60000	0,09323	0,00041
686,64000	0,08855	0,00041
686,68000	0,08773	0,00031
686,72000	0,09048	0,00050
686,76000	0,09028	0,00059
686,80000	0,08997	0,00031
686,84000	0,08758	0,00034
686,88000	0,08743	0,00038
686,92000	0,08829	0,00042
686,96000	0,08758	0,00034
687,00000	0,08768	0,00023
687,04000	0,08778	0,00036
687,08000	0,08666	0,00046
687,12000	0,08844	0,00038
687,16000	0,08875	0,00038
687,20000	0,09048	0,00044
687,24000	0,08559	0,00041
687,28000	0,09211	0,00034
687,32000	0,08931	0,00036
687,36000	0,08152	0,00052
687,40000	0,08651	0,00025
687,44000	0,08183	0,00031
687,48000	0,08188	0,00040
687,52000	0,08788	0,00062
687,56000	0,08972	0,00023
687,60000	0,08580	0,00046
687,64000	0,08493	0,00033
687,68000	0,08605	0,00041
687,72000	0,08595	0,00046
687,76000	0,08554	0,00052
687,80000	0,09236	0,00036
687,84000	0,08778	0,00053
687,88000	0,09023	0,00040
687,92000	0,08641	0,00038
687,96000	0,08768	0,00046
688,00000	0,09231	0,00050
688,04000	0,09231	0,00031
688,08000	0,08646	0,00040
688,12000	0,08850	0,00033
688,16000	0,08763	0,00041
688,20000	0,08661	0,00047
688,24000	0,08839	0,00036
688,28000	0,08850	0,00040
688,32000	0,08177	0,00048
688,36000	0,08198	0,00034
688,40000	0,08860	0,00025
688,44000	0,09435	0,00031
688,48000	0,08844	0,00038
688,52000	0,08396	0,00034
688,56000	0,08661	0,00041
688,60000	0,08315	0,00055
688,64000	0,08320	0,00058
688,68000	0,08967	0,00041
688,72000	0,09048	0,00050
688,76000	0,08860	0,00041
688,80000	0,08783	0,00032
688,84000	0,08972	0,00033
688,88000	0,08498	0,00041
688,92000	0,08493	0,00046
688,96000	0,08473	0,00058
689,00000	0,08982	0,00036
689,04000	0,08289	0,00040
689,08000	0,09058	0,00061
689,12000	0,08977	0,00031
689,16000	0,09333	0,00044
689,20000	0,08401	0,00041
689,24000	0,08417	0,00044
689,28000	0,08768	0,00023
689,32000	0,08600	0,00034
689,36000	0,09058	0,00061
689,40000	0,08951	0,00068
689,44000	0,08941	0,00042
689,48000	0,08483	0,00042
689,52000	0,08488	0,00050
689,56000	0,08844	0,00044
689,60000	0,09247	0,00048
689,64000	0,08585	0,00027
689,68000	0,08702	0,00052
689,72000	0,08478	0,00032
689,76000	0,09155	0,00040
689,80000	0,09175	0,00051
689,84000	0,09160	0,00052
689,88000	0,09033	0,00027
689,92000	0,08839	0,00036
689,96000	0,08773	0,00031
690,00000	0,09119	0,00047
690,04000	0,08570	0,00055
690,08000	0,08962	0,00034
690,12000	0,08921	0,00051
690,16000	0,08274	0,00039
690,20000	0,09242	0,00051
690,24000	0,08778	0,00042
690,28000	0,08946	0,00031
690,32000	0,08778	0,00027
690,36000	0,08213	0,00031
690,40000	0,08198	0,00052
690,44000	0,08850	0,00060
690,48000	0,08386	0,00038
690,52000	0,09145	0,00036
690,56000	0,09150	0,00038
690,60000	0,09231	0,00038
690,64000	0,08870	0,00051
690,68000	0,08773	0,00031
690,72000	0,08763	0,00052
690,76000	0,08850	0,00046
690,80000	0,08875	0,00031
690,84000	0,08865	0,00025
690,88000	0,08875	0,00031
690,92000	0,08676	0,00048
690,96000	0,09068	0,00041
691,00000	0,09038	0,00032
691,04000	0,08661	0,00065
691,08000	0,08570	0,00044
691,12000	0,08844	0,00038
691,16000	0,08850	0,00051
691,20000	0,08488	0,00044
691,24000	0,08768	0,00046
691,28000	0,08783	0,00051
691,32000	0,08748	0,00046
691,36000	0,08468	0,00038
691,40000	0,08666	0,00046
691,44000	0,08783	0,00032
691,48000	0,08671	0,00044
691,52000	0,08590	0,00038
691,56000	0,08753	0,00041
691,60000	0,08773	0,00038
691,64000	0,08967	0,00047
691,68000	0,09155	0,00040
691,72000	0,08865	0,00034
691,76000	0,08758	0,00047
691,80000	0,09338	0,00058
691,84000	0,09155	0,00040
691,88000	0,09175	0,00033
691,92000	0,08692	0,00038
691,96000	0,09023	0,00033
692,00000	0,08758	0,00041
692,04000	0,08951	0,00051
692,08000	0,08834	0,00046
692,12000	0,08661	0,00025
692,16000	0,09155	0,00056
692,20000	0,09135	0,00036
692,24000	0,08783	0,00032
692,28000	0,08946	0,00038
692,32000	0,08692	0,00064
692,36000	0,08773	0,00020
692,40000	0,08850	0,00056
692,44000	0,09048	0,00038
692,48000	0,09048	0,00031
692,52000	0,08748	0,00033
692,56000	0,08839	0,00027
692,60000	0,08580	0,00039
692,64000	0,09308	0,00040
692,68000	0,08483	0,00058
692,72000	0,08284	0,00050
692,76000	0,08279	0,00066
692,80000	0,08834	0,00032
692,84000	0,09807	0,00048
692,88000	0,08595	0,00040
692,92000	0,08585	0,00036
692,96000	0,08967	0,00041
693,00000	0,08855	0,00034
693,04000	0,09415	0,00047
693,08000	0,09420	0,00041
693,12000	0,09145	0,00048
693,16000	0,08829	0,00036
693,20000	0,09135	0,00058
693,24000	0,08773	0,00038
693,28000	0,09267	0,00047
693,32000	0,08956	0,00041
693,36000	0,08956	0,00057
693,40000	0,08844	0,00050
693,44000	0,08850	0,00033
693,48000	0,08666	0,00040
693,52000	0,08570	0,00038
693,56000	0,09170	0,00025
693,60000	0,09140	0,00039
693,64000	0,09135	0,00042
693,68000	0,08773	0,00031
693,72000	0,08651	0,00034
693,76000	0,08641	0,00031
693,80000	0,08671	0,00055
693,84000	0,08941	0,00053
693,88000	0,08391	0,00033
693,92000	0,08580	0,00046
693,96000	0,08600	0,00025
694,00000	0,08661	0,00047
694,04000	0,08946	0,00055
694,08000	0,08829	0,00042
694,12000	0,08585	0,00042
694,16000	0,09145	0,00027
694,20000	0,09150	0,00038
694,24000	0,09145	0,00048
694,28000	0,08977	0,00038
694,32000	0,08788	0,00042
694,36000	0,09160	0,00034
694,40000	0,08381	0,00042
694,44000	0,09476	0,00041
694,48000	0,08712	0,00052
694,52000	0,08880	0,00036
694,56000	0,08870	0,00056
694,60000	0,08651	0,00034
694,64000	0,08758	0,00047
694,68000	0,08850	0,00046
694,72000	0,08834	0,00032
694,76000	0,08580	0,00039
694,80000	0,09221	0,00034
694,84000	0,09231	0,00031
694,88000	0,08478	0,00032
694,92000	0,09216	0,00025
694,96000	0,08844	0,00038
695,00000	0,08860	0,00034
695,04000	0,08310	0,00051
695,08000	0,09135	0,00036
695,12000	0,09130	0,00050
695,16000	0,08860	0,00025
695,20000	0,08595	0,00033
695,24000	0,08773	0,00031
695,28000	0,08656	0,00052
695,32000	0,09130	0,00020
695,36000	0,08284	0,00038
695,40000	0,08570	0,00038
695,44000	0,08580	0,00032
695,48000	0,09338	0,00042
695,52000	0,09379	0,00046
695,56000	0,08783	0,00032
695,60000	0,08096	0,00041
695,64000	0,08381	0,00048
695,68000	0,08483	0,00036
695,72000	0,08483	0,00048
695,76000	0,08656	0,00041
695,80000	0,09033	0,00042
695,84000	0,08946	0,00038
695,88000	0,08447	0,00025
695,92000	0,09155	0,00046
695,96000	0,08870	0,00033
696,00000	0,08855	0,00041
696,04000	0,08788	0,00027
696,08000	0,08488	0,00064
696,12000	0,08580	0,00032
696,16000	0,08936	0,00039
696,20000	0,08855	0,00047
696,24000	0,08585	0,00042
696,28000	0,08697	0,00040
696,32000	0,08666	0,00046
696,36000	0,08585	0,00042
696,40000	0,09135	0,00036
696,44000	0,08967	0,00025
696,48000	0,08585	0,00048
696,52000	0,08967	0,00041
696,56000	0,08956	0,00061
696,60000	0,08951	0,00056
696,64000	0,09043	0,00048
696,68000	0,08671	0,00055
696,72000	0,08783	0,00056
696,76000	0,08580	0,00060
696,80000	0,08274	0,00051
696,84000	0,09328	0,00040
696,88000	0,08753	0,00047
696,92000	0,08778	0,00027
696,96000	0,08682	0,00032
697,00000	0,09155	0,00056
697,04000	0,08661	0,00034
697,08000	0,08687	0,00015
697,12000	0,08885	0,00051
697,16000	0,08778	0,00036
697,20000	0,08763	0,00034
697,24000	0,08844	0,00038
697,28000	0,08401	0,00047
697,32000	0,09150	0,00031
697,36000	0,08962	0,00025
697,40000	0,08468	0,00050
697,44000	0,08412	0,00040
697,48000	0,08391	0,00033
697,52000	0,08773	0,00031
697,56000	0,08834	0,00060
697,60000	0,08860	0,00025
697,64000	0,08483	0,00053
697,68000	0,08962	0,00025
697,72000	0,08748	0,00023
697,76000	0,08855	0,00052
697,80000	0,08870	0,00033
697,84000	0,09242	0,00032
697,88000	0,09247	0,00042
697,92000	0,08962	0,00065
697,96000	0,08605	0,00034
698,00000	0,09165	0,00057
698,04000	0,08376	0,00023
698,08000	0,08407	0,00047
698,12000	0,08661	0,00041
698,16000	0,08381	0,00042
698,20000	0,08875	0,00038
698,24000	0,08580	0,00046
698,28000	0,08748	0,00040
698,32000	0,09038	0,00023
698,36000	0,09028	0,00031
698,40000	0,09231	0,00038
698,44000	0,08860	0,00047
698,48000	0,08773	0,00031
698,52000	0,08478	0,00039
698,56000	0,09058	0,00041
698,60000	0,08386	0,00044
698,64000	0,09028	0,00055
698,68000	0,09048	0,00038
698,72000	0,08809	0,00025
698,76000	0,09114	0,00034
698,80000	0,08783	0,00023
698,84000	0,09048	0,00064
698,88000	0,08850	0,00023
698,92000	0,09216	0,00025
698,96000	0,09231	0,00050
699,00000	0,09114	0,00052
699,04000	0,09440	0,00036
699,08000	0,08962	0,00041
699,12000	0,08967	0,00052
699,16000	0,08962	0,00047
699,20000	0,08778	0,00036
699,24000	0,08661	0,00025
699,28000	0,08671	0,00044
699,32000	0,08844	0,00050
699,36000	0,09140	0,00060
699,40000	0,08941	0,00058
699,44000	0,08850	0,00040
699,48000	0,08844	0,00038
699,52000	0,08687	0,00066
699,56000	0,08661	0,00041
699,60000	0,08936	0,00039
699,64000	0,08666	0,00040
699,68000	0,08844	0,00055
699,72000	0,08121	0,00051
699,76000	0,08855	0,00047
699,80000	0,08773	0,00059
699,84000	0,08758	0,00034
699,88000	0,09405	0,00038
699,92000	0,08580	0,00046
699,96000	0,09140	0,00039
